Time,Fx,Fy,Fz,F,Mx,My,Mz
[s],[N],[N],[N],[N],[Nm],[Nm],[Nm]
0,42.16,-138.57,10.12,145.19,0.29,0.02,-0.4
0.009,41.1,-136.74,9.8,143.12,0.3,0.02,-0.39
0.017,40.06,-134.51,9.03,140.64,0.31,0.02,-0.4
0.025,40.01,-132.69,9.24,138.9,0.32,0.02,-0.4
0.033,38.28,-129.84,8.02,135.6,0.32,0.04,-0.41
0.041,37.89,-128.19,8.83,133.97,0.33,0.04,-0.42
0.049,39.09,-127.73,11.18,134.05,0.34,0.02,-0.42
0.058,37.59,-125.19,10.58,131.14,0.35,0.03,-0.42
0.066,36.82,-123.66,10.28,129.44,0.36,0.04,-0.43
0.074,35.98,-122.22,10.5,127.84,0.38,0.04,-0.43
0.082,36.16,-121.89,12.06,127.71,0.39,0.02,-0.43
0.09,36.3,-120.9,12.73,126.87,0.4,0.01,-0.43
0.099,35.78,-120.45,13.28,126.35,0.41,-0.01,-0.42
0.107,35.88,-119.21,14.16,125.29,0.42,-0.01,-0.42
0.115,35.41,-116.46,13.6,122.48,0.42,0,-0.43
0.123,35.27,-114.49,13.96,120.61,0.43,0,-0.43
0.131,35.92,-113.39,15.55,119.96,0.43,-0.01,-0.43
0.14,35.24,-110.83,15.4,117.32,0.43,0,-0.42
0.148,34.72,-108.47,15.57,114.95,0.44,0.01,-0.42
0.156,32.68,-105.29,13.97,111.13,0.44,0.04,-0.43
0.164,30.46,-102.4,12.57,107.57,0.44,0.06,-0.42
0.172,29.12,-99.67,11.62,104.48,0.44,0.08,-0.42
0.181,27.83,-97.1,10.29,101.53,0.43,0.1,-0.42
0.189,27.12,-95.72,9.72,99.96,0.43,0.1,-0.42
0.197,26,-94.24,8.48,98.13,0.43,0.12,-0.41
0.205,25.9,-92.98,7.97,96.85,0.43,0.13,-0.42
0.214,26.52,-93.12,8.88,97.23,0.43,0.12,-0.41
0.222,27.56,-93.79,10.03,98.27,0.43,0.11,-0.41
0.23,28.38,-94.88,10.84,99.63,0.42,0.1,-0.41
0.238,29.43,-96.86,12.09,101.95,0.42,0.08,-0.39
0.246,31.62,-100,14.45,105.87,0.42,0.05,-0.38
0.255,34.02,-103.7,17.31,110.51,0.41,0.02,-0.36
0.263,34.74,-106.93,18.63,113.96,0.41,0,-0.33
0.271,34.67,-109.24,18.89,116.15,0.4,-0.01,-0.31
0.279,33.9,-110.97,18.27,117.46,0.4,-0.01,-0.3
0.287,32.09,-112.06,16.56,117.73,0.39,0,-0.28
0.296,32.04,-114.7,16.57,120.24,0.39,-0.01,-0.27
0.304,32.49,-117.47,16.95,123.05,0.38,-0.02,-0.26
0.312,33.44,-120.71,17.31,126.45,0.37,-0.04,-0.26
0.32,34.69,-124.19,18.22,130.23,0.37,-0.06,-0.25
0.328,35.94,-126.86,18.66,133.17,0.35,-0.06,-0.25
0.337,35.82,-128.52,17.44,134.55,0.34,-0.05,-0.26
0.345,36.4,-129.83,17.36,135.95,0.33,-0.03,-0.27
0.353,38.82,-132.72,18.73,139.54,0.32,-0.04,-0.27
0.361,40.93,-135.06,19.73,142.5,0.32,-0.03,-0.27
0.369,42.61,-137.34,20.27,145.22,0.31,-0.02,-0.26
0.377,43.34,-139.11,19.48,147.01,0.32,-0.01,-0.25
0.386,44.1,-139.96,18.29,147.87,0.32,0.03,-0.23
0.394,46.2,-142.68,19.13,151.19,0.33,0.04,-0.21
0.402,47.19,-144.49,18.61,153.14,0.34,0.06,-0.18
0.41,48.93,-146.02,18.23,155.07,0.35,0.08,-0.14
0.418,51.2,-149.51,19.57,159.24,0.37,0.08,-0.1
0.426,54.65,-151.75,21.79,162.76,0.39,0.08,-0.07
0.434,56.65,-154.03,22.82,165.7,0.4,0.09,-0.03
0.442,57.21,-155.37,22.77,167.13,0.42,0.1,0
0.451,58.87,-157.66,24.47,170.07,0.43,0.09,0.03
0.459,58.85,-158.11,23.75,170.37,0.45,0.11,0.06
0.467,58.37,-158.16,22.93,170.14,0.47,0.13,0.08
0.475,59.06,-158.39,23.14,170.62,0.48,0.14,0.1
0.483,59.73,-159.5,23.33,171.91,0.49,0.14,0.13
0.491,60.1,-161.21,23.61,173.66,0.51,0.12,0.17
0.499,61.49,-162.53,25.07,175.58,0.52,0.12,0.19
0.507,62.64,-163.84,26.07,177.34,0.53,0.11,0.22
0.515,63.06,-165.46,27.06,179.13,0.54,0.1,0.24
0.524,63.18,-166.66,27.89,180.4,0.54,0.09,0.25
0.532,63.09,-166.94,28.13,180.67,0.55,0.08,0.26
0.54,62.49,-166.21,27.69,179.71,0.55,0.09,0.25
0.548,61.93,-164.69,27.08,178.02,0.55,0.1,0.24
0.556,61.34,-162.39,26.18,175.56,0.55,0.11,0.22
0.564,60.31,-159.66,24.96,172.49,0.55,0.13,0.2
0.572,58.98,-156.87,23.28,169.2,0.55,0.15,0.17
0.58,57.52,-155.2,21.58,166.92,0.56,0.15,0.15
0.588,57.01,-152.76,21.11,164.41,0.56,0.15,0.12
0.596,55.71,-150.26,20.44,161.55,0.57,0.16,0.08
0.605,53.78,-148.32,20.22,159.06,0.57,0.16,0.05
0.613,51.48,-145.9,19.73,155.97,0.58,0.16,0
0.621,49.6,-142.82,19.48,152.44,0.58,0.16,-0.06
0.629,48.99,-140.86,20.43,150.53,0.57,0.14,-0.11
0.637,48.76,-139.21,22.15,149.16,0.57,0.12,-0.16
0.645,48.58,-138.91,23.76,149.07,0.57,0.09,-0.19
0.653,47.59,-136.68,24.54,146.79,0.55,0.09,-0.24
0.662,47.11,-136.14,25.67,146.33,0.54,0.06,-0.26
0.67,46.24,-135.71,25.75,145.66,0.53,0.04,-0.28
0.678,45.78,-135.01,26.6,145.02,0.51,0.02,-0.29
0.686,44.37,-134.45,25.38,143.84,0.49,0,-0.29
0.694,43.75,-134.42,25.94,143.72,0.46,-0.02,-0.29
0.702,41.85,-133.71,24.77,142.28,0.44,-0.03,-0.28
0.711,40.6,-132.47,24.35,140.68,0.41,-0.04,-0.27
0.719,39.6,-129.75,23.99,137.77,0.38,-0.03,-0.27
0.727,38.26,-128.29,23.58,135.93,0.35,-0.03,-0.26
0.735,36.37,-126.98,23.36,134.13,0.33,-0.04,-0.25
0.743,34.77,-126.47,23.12,133.19,0.3,-0.05,-0.23
0.751,33.46,-126.17,23,132.54,0.27,-0.06,-0.21
0.76,31.9,-126.33,22.89,132.29,0.25,-0.07,-0.18
0.768,31.02,-126.99,23.38,132.8,0.22,-0.1,-0.16
0.776,29.31,-125.36,21.93,130.59,0.19,-0.09,-0.15
0.784,27.25,-124.58,21.14,129.27,0.17,-0.09,-0.13
0.792,25.09,-124.26,20.47,128.41,0.15,-0.1,-0.12
0.801,24.97,-125.21,21.89,129.54,0.13,-0.13,-0.1
0.809,23.98,-124.97,21.8,129.11,0.12,-0.14,-0.08
0.817,22.65,-124.48,21.49,128.33,0.1,-0.15,-0.07
0.825,21.13,-123.12,21.1,126.69,0.08,-0.14,-0.06
0.833,19.91,-121.46,20.95,124.85,0.06,-0.13,-0.06
0.842,19.14,-120.95,21.16,124.27,0.05,-0.14,-0.04
0.85,17.89,-119.13,20.09,122.13,0.03,-0.13,-0.03
0.858,16.97,-119.03,19.86,121.86,0.02,-0.13,-0.01
0.866,16.58,-118.82,20.16,121.65,0.01,-0.14,0.01
0.874,15.31,-118.02,19.1,120.54,0,-0.14,0.03
0.883,13.84,-116.44,18.48,118.71,-0.01,-0.13,0.04
0.891,13.02,-114.9,18.27,117.07,-0.01,-0.11,0.04
0.899,12.44,-113.28,18.17,115.4,-0.02,-0.1,0.05
0.907,12.15,-111.49,17.29,113.48,-0.02,-0.09,0.05
0.915,10.64,-109.43,15.49,111.03,-0.03,-0.07,0.05
0.924,10.01,-109.04,16.15,110.68,-0.03,-0.07,0.06
0.932,10.97,-109.75,17.92,111.74,-0.03,-0.08,0.08
0.94,12.67,-110.55,19.89,113.04,-0.03,-0.1,0.09
0.948,13.47,-110.52,20.2,113.16,-0.03,-0.1,0.1
0.957,12.81,-110.51,19.56,112.96,-0.04,-0.1,0.11
0.965,11.13,-109.93,18.92,112.1,-0.04,-0.09,0.12
0.973,8.7,-107.84,17.11,109.54,-0.05,-0.06,0.12
0.981,8.21,-107.5,16.99,109.15,-0.05,-0.06,0.13
0.989,8.36,-107.3,16.9,108.95,-0.06,-0.06,0.13
0.998,7.38,-107.15,16.52,108.67,-0.06,-0.06,0.14
1.006,7.43,-106.93,16.08,108.39,-0.07,-0.06,0.15
1.014,6.57,-107.37,15.49,108.68,-0.08,-0.07,0.16
1.022,5.2,-106.81,13.99,107.85,-0.08,-0.07,0.16
1.03,4.89,-106.93,13.72,107.92,-0.09,-0.08,0.17
1.039,6.38,-109.05,15.7,110.36,-0.09,-0.11,0.18
1.047,9,-111.74,18.58,113.63,-0.1,-0.14,0.19
1.055,10.45,-112.64,19.49,114.79,-0.11,-0.15,0.19
1.063,10.56,-112.39,19.11,114.5,-0.12,-0.14,0.19
1.072,9.51,-112,17.76,113.8,-0.13,-0.13,0.19
1.08,8.62,-111.83,16.87,113.42,-0.14,-0.12,0.2
1.088,8.33,-110.81,16.42,112.33,-0.16,-0.1,0.19
1.096,6.97,-109.64,14.88,110.86,-0.16,-0.07,0.19
1.104,6.14,-109.63,14.36,110.74,-0.17,-0.07,0.19
1.113,6.38,-109.95,14.45,111.08,-0.17,-0.07,0.19
1.121,6.82,-110.9,15.25,112.15,-0.18,-0.08,0.19
1.129,6.73,-109.86,14.35,111,-0.18,-0.06,0.19
1.137,6.63,-109.98,14.31,111.11,-0.18,-0.07,0.19
1.145,6.68,-109.27,14.31,110.41,-0.18,-0.06,0.19
1.154,5.81,-108.48,13.8,109.51,-0.18,-0.06,0.2
1.162,5.05,-107.78,13.41,108.73,-0.18,-0.05,0.19
1.17,5.12,-108.27,14.2,109.31,-0.18,-0.06,0.19
1.178,4.99,-108.51,14.36,109.57,-0.17,-0.07,0.19
1.187,6.43,-109.37,15.82,110.7,-0.17,-0.09,0.19
1.195,7.1,-110.7,16.36,112.13,-0.17,-0.11,0.2
1.203,6.98,-111.02,15.82,112.36,-0.17,-0.12,0.2
1.211,7.3,-111.54,16.06,112.92,-0.17,-0.13,0.2
1.219,6.5,-111.19,15.37,112.44,-0.17,-0.13,0.19
1.228,5.54,-110.43,14.5,111.52,-0.17,-0.13,0.19
1.236,5.46,-109.53,14.3,110.59,-0.17,-0.12,0.18
1.244,6.13,-107.94,14.22,109.05,-0.18,-0.1,0.16
1.252,6.01,-106.91,13.76,107.96,-0.18,-0.09,0.15
1.26,5.53,-105.68,13.52,106.68,-0.18,-0.08,0.14
1.269,5.97,-106.11,14.55,107.27,-0.18,-0.08,0.13
1.277,5.47,-106.6,14.73,107.75,-0.18,-0.09,0.13
1.285,4.87,-107.07,15.34,108.27,-0.17,-0.09,0.12
1.293,5.64,-107.58,17.13,109.08,-0.17,-0.1,0.12
1.302,7.12,-107.67,18.69,109.51,-0.17,-0.1,0.11
1.31,7.38,-107.42,18.77,109.3,-0.17,-0.1,0.11
1.318,7.07,-106.62,17.67,108.31,-0.17,-0.09,0.11
1.326,7.54,-106.64,17.24,108.28,-0.18,-0.09,0.11
1.335,8.56,-107.53,17.3,109.25,-0.18,-0.09,0.11
1.343,8.87,-108.29,16.88,109.96,-0.18,-0.1,0.11
1.351,9.2,-109.85,16.53,111.46,-0.19,-0.11,0.12
1.359,9.26,-111.21,15.5,112.67,-0.19,-0.12,0.12
1.367,9.52,-112.69,15.57,114.16,-0.19,-0.13,0.12
1.376,10.81,-114.35,16.74,116.08,-0.19,-0.14,0.12
1.384,10.9,-114.66,16.39,116.34,-0.19,-0.14,0.12
1.392,10.7,-114.91,16.02,116.51,-0.19,-0.13,0.11
1.4,10.79,-115.2,16,116.81,-0.19,-0.14,0.1
1.408,11.18,-114.66,15.43,116.24,-0.19,-0.13,0.08
1.417,11.57,-114.73,15.13,116.3,-0.18,-0.13,0.08
1.425,12.06,-114.74,15.13,116.36,-0.17,-0.13,0.06
1.433,13.25,-114.31,15.73,116.15,-0.17,-0.13,0.04
1.441,14.23,-114.22,16.7,116.31,-0.17,-0.13,0.03
1.449,15.87,-115.46,18.71,118.04,-0.16,-0.15,0.02
1.458,17.48,-117.11,20.85,120.22,-0.15,-0.17,0.01
1.466,18.72,-118.45,21.9,121.9,-0.15,-0.19,0.01
1.474,18.97,-119.25,21.69,122.68,-0.14,-0.2,0.01
1.482,19.4,-119.6,21.54,123.07,-0.14,-0.21,0.01
1.491,19.72,-119.9,21.18,123.34,-0.14,-0.21,0
1.499,20.2,-120.01,21.3,123.55,-0.14,-0.21,0
1.507,19.68,-119.16,20.36,122.48,-0.14,-0.2,-0.01
1.515,19.42,-118.9,20,122.12,-0.13,-0.19,-0.02
1.523,19.63,-118.9,20.08,122.17,-0.13,-0.19,-0.02
1.532,20.41,-119.55,20.83,123.06,-0.12,-0.2,-0.03
1.54,20.48,-119.37,20.47,122.83,-0.12,-0.2,-0.03
1.548,21.49,-119.51,21.52,123.32,-0.11,-0.2,-0.04
1.556,22.32,-119.01,22.44,123.14,-0.1,-0.2,-0.05
1.564,21.78,-117.48,21.84,121.46,-0.09,-0.19,-0.07
1.573,22.03,-116.6,22.08,120.7,-0.08,-0.18,-0.08
1.581,21.13,-115.43,21.59,119.32,-0.07,-0.17,-0.09
1.589,22.05,-115.68,23.72,120.13,-0.06,-0.18,-0.09
1.597,21.53,-115.08,22.95,119.3,-0.06,-0.18,-0.09
1.605,20.66,-113.68,22.15,117.64,-0.05,-0.16,-0.09
1.614,18.78,-112.01,19.93,115.31,-0.04,-0.15,-0.09
1.622,17.28,-110.28,16.88,112.9,-0.04,-0.14,-0.09
1.63,16.16,-108.52,14.19,110.63,-0.04,-0.12,-0.08
1.638,14.52,-106.03,11.61,107.65,-0.03,-0.1,-0.08
1.647,12.66,-103.33,9.42,104.53,-0.03,-0.06,-0.08
1.655,11.4,-101.72,8.75,102.73,-0.02,-0.05,-0.09
1.663,10.28,-100.93,8.41,101.8,-0.02,-0.04,-0.08
1.671,10.24,-101.08,9.13,102.01,-0.01,-0.04,-0.08
1.679,9.66,-100.92,9.06,101.79,0,-0.04,-0.07
1.688,9.03,-100.48,8.73,101.26,0,-0.04,-0.07
1.696,9.01,-100.71,9.32,101.54,0,-0.04,-0.07
1.704,8.75,-100.67,9.48,101.49,0.01,-0.04,-0.06
1.712,8.12,-100.05,8.48,100.74,0.01,-0.04,-0.06
1.721,8.06,-99.44,8.14,100.09,0.01,-0.04,-0.05
1.729,7.95,-98.53,7.95,99.17,0.01,-0.04,-0.05
1.737,9.67,-99.36,9.71,100.3,0.02,-0.06,-0.04
1.745,11.53,-100.79,12.13,102.17,0.03,-0.09,-0.03
1.754,12.12,-101.29,13.2,102.86,0.04,-0.1,-0.03
1.762,12.71,-101.93,14.59,103.75,0.05,-0.11,-0.02
1.77,13.48,-102.29,15.84,104.39,0.06,-0.12,-0.02
1.778,12.29,-101.7,15.17,103.56,0.06,-0.12,-0.02
1.786,13.47,-102.27,16.9,104.53,0.07,-0.13,-0.02
1.795,13.1,-102.22,16.99,104.45,0.08,-0.12,-0.02
1.803,13.52,-102.2,17.39,104.54,0.08,-0.13,-0.02
1.811,12.91,-101.51,16.94,103.72,0.09,-0.12,-0.03
1.819,12.59,-100.28,15.77,102.29,0.09,-0.11,-0.04
1.828,13.42,-100.07,16.84,102.36,0.1,-0.11,-0.04
1.836,12.98,-98.81,15.35,100.83,0.1,-0.1,-0.05
1.844,13.25,-98.25,15.75,100.39,0.11,-0.1,-0.06
1.852,13.72,-98.59,16.13,100.84,0.11,-0.11,-0.06
1.861,12.59,-97.59,14.68,99.49,0.12,-0.1,-0.06
1.869,11.88,-97.11,13.82,98.81,0.12,-0.1,-0.06
1.877,11.58,-97.01,12.98,98.56,0.12,-0.11,-0.06
1.885,11.81,-97.74,12.83,99.28,0.12,-0.12,-0.06
1.894,11.37,-97.88,12.41,99.32,0.12,-0.13,-0.06
1.902,11.87,-97.97,12.73,99.5,0.12,-0.13,-0.07
1.91,13.19,-98.63,14.29,100.53,0.13,-0.13,-0.08
1.918,14.49,-99.48,15.74,101.76,0.14,-0.14,-0.09
1.927,15.29,-100.2,16.18,102.65,0.14,-0.14,-0.09
1.935,15.52,-100.5,15.98,102.94,0.14,-0.14,-0.1
1.943,15.88,-100.84,16.06,103.34,0.14,-0.14,-0.11
1.951,15.87,-100.54,15.61,102.98,0.13,-0.14,-0.12
1.959,16.15,-100.64,15.6,103.12,0.13,-0.13,-0.14
1.968,16.41,-100.99,15.68,103.51,0.13,-0.13,-0.15
1.976,16.33,-101.01,15.56,103.5,0.13,-0.13,-0.16
1.984,17.33,-101.79,16.39,104.55,0.14,-0.13,-0.18
1.992,18.3,-102.51,17.5,105.59,0.14,-0.14,-0.19
2.001,19.78,-103.82,19.08,107.4,0.14,-0.15,-0.2
2.009,19.82,-104.69,18.88,108.2,0.15,-0.16,-0.21
2.017,19.39,-103.76,17.82,107.05,0.15,-0.15,-0.23
2.025,20.95,-104.67,19.25,108.47,0.15,-0.16,-0.25
2.034,21.08,-104.8,19.11,108.6,0.14,-0.16,-0.26
2.042,22.28,-105.22,19.69,109.34,0.14,-0.16,-0.28
2.05,22.6,-106.17,19.44,110.28,0.13,-0.16,-0.29
2.058,21.97,-104.77,17.25,108.43,0.13,-0.15,-0.31
2.067,23,-105.51,17.59,109.41,0.12,-0.15,-0.32
2.075,22.26,-104.41,15.37,107.86,0.11,-0.13,-0.34
2.083,23.14,-105.57,15.59,109.19,0.1,-0.13,-0.35
2.091,22.13,-104.93,13.43,108.08,0.1,-0.11,-0.36
2.099,21.59,-105.43,12.75,108.37,0.1,-0.1,-0.37
2.108,22.14,-106.89,13.11,109.95,0.1,-0.1,-0.38
2.116,23.58,-109.24,14.6,112.71,0.1,-0.11,-0.39
2.124,26.39,-112.6,17.22,116.93,0.1,-0.12,-0.4
2.132,30.11,-116.46,20.08,121.95,0.1,-0.14,-0.41
2.14,32.32,-119.47,21.75,125.66,0.1,-0.16,-0.41
2.149,32.83,-121.61,21.45,127.78,0.1,-0.14,-0.41
2.157,33.88,-124.15,21.25,130.44,0.1,-0.13,-0.42
2.165,34.94,-127.58,21.49,134.01,0.1,-0.12,-0.43
2.173,37.16,-131.09,22.63,138.12,0.1,-0.12,-0.44
2.181,40.66,-136.41,25.33,144.58,0.1,-0.15,-0.44
2.19,44.1,-140.93,27.91,150.28,0.11,-0.16,-0.44
2.198,46.35,-145.01,29.22,155.01,0.11,-0.16,-0.45
2.206,46.69,-147.75,27.27,157.33,0.11,-0.14,-0.45
2.214,47.85,-152.59,27.47,162.26,0.12,-0.14,-0.45
2.222,48.86,-156.33,26.83,165.97,0.12,-0.12,-0.47
2.23,49.95,-160.56,26.35,170.21,0.13,-0.1,-0.48
2.238,51.22,-165.89,26.42,175.62,0.14,-0.09,-0.49
2.247,53.2,-171.17,27.17,181.29,0.15,-0.08,-0.5
2.255,56.06,-177.64,28.97,188.51,0.17,-0.08,-0.51
2.263,58.96,-183.38,30.53,195.03,0.19,-0.07,-0.52
2.271,63.12,-190.07,33.61,203.08,0.22,-0.07,-0.52
2.279,65.77,-197.31,36.02,211.08,0.26,-0.07,-0.51
2.287,67.79,-203.13,36.41,217.21,0.29,-0.04,-0.51
2.295,70.6,-209.57,37.1,224.23,0.32,-0.02,-0.49
2.303,73.97,-217.28,39,232.82,0.36,-0.01,-0.47
2.311,75.26,-223.79,39.2,239.34,0.41,0.03,-0.45
2.319,78.35,-231.44,40.61,247.69,0.45,0.05,-0.41
2.327,81.76,-238.2,42.25,255.36,0.49,0.08,-0.38
2.335,87.09,-245.26,44.91,264.11,0.53,0.12,-0.34
2.343,91.62,-252.03,47.27,272.3,0.57,0.15,-0.29
2.351,95.7,-258.88,49.44,280.4,0.61,0.18,-0.23
2.359,98.72,-265.75,50.94,288.03,0.65,0.21,-0.17
2.366,102.35,-271.41,53.53,294.96,0.69,0.24,-0.11
2.374,106.51,-278.62,56.4,303.57,0.72,0.26,-0.03
2.382,109.87,-283.8,58.11,309.83,0.75,0.29,0.03
2.39,113.24,-288.46,58.93,315.44,0.77,0.33,0.09
2.398,117.3,-293.44,60.87,321.83,0.78,0.35,0.15
2.406,119.28,-297.14,61.22,325.98,0.8,0.38,0.2
2.414,120.93,-301.6,61.29,330.67,0.81,0.41,0.25
2.421,123.22,-306.9,61.71,336.42,0.82,0.43,0.29
2.429,125.92,-312.31,62.77,342.54,0.83,0.44,0.33
2.437,128.09,-318.08,64.06,348.83,0.84,0.44,0.37
2.445,130.04,-323.57,65.81,354.88,0.86,0.44,0.4
2.452,131.83,-328.49,66.72,360.19,0.87,0.46,0.43
2.46,133.22,-332.54,67.15,364.47,0.89,0.48,0.45
2.468,134.63,-336.08,67.8,368.34,0.9,0.5,0.47
2.476,136.32,-340.21,69.1,372.96,0.92,0.52,0.49
2.483,138.83,-344.41,70.87,378.04,0.94,0.54,0.5
2.491,141.38,-348.35,72.38,382.85,0.96,0.55,0.52
2.499,144.89,-354.02,75.49,389.89,0.98,0.54,0.54
2.506,147.66,-358.27,77.56,395.19,0.99,0.56,0.57
2.514,150.46,-362.64,79.51,400.58,1.01,0.56,0.59
2.522,152.78,-367.6,81.26,406.29,1.02,0.56,0.62
2.529,155.85,-372.07,83.97,412.04,1.03,0.56,0.65
2.537,158.17,-376.47,85.4,417.19,1.04,0.57,0.68
2.545,161.37,-381.54,88.48,423.61,1.05,0.57,0.7
2.552,164.37,-385.95,89.96,429.03,1.05,0.57,0.72
2.56,168.41,-390.47,92.15,435.11,1.05,0.58,0.74
2.568,171.68,-394.68,93.61,440.47,1.06,0.6,0.77
2.575,174.02,-398.63,92.91,444.78,1.06,0.62,0.8
2.583,175.67,-402.25,91.4,448.35,1.07,0.65,0.82
2.59,177.67,-406.17,91.09,452.59,1.08,0.67,0.85
2.598,179.84,-410.44,90.56,457.17,1.08,0.7,0.87
2.606,182.95,-416.77,90.98,464.16,1.1,0.69,0.9
2.613,186.05,-423.03,92.31,471.27,1.11,0.7,0.93
2.621,189.39,-428.02,94,477.39,1.12,0.71,0.95
2.628,193.42,-432.95,95.86,483.78,1.13,0.73,0.98
2.636,196.36,-438.01,96.62,489.64,1.14,0.74,1
2.643,198.6,-442.38,95.91,494.31,1.15,0.77,1.03
2.651,201.98,-446.49,96.82,499.52,1.17,0.79,1.04
2.658,204.16,-449.04,96.46,502.61,1.19,0.83,1.05
2.666,207.02,-452,96.29,506.39,1.21,0.87,1.06
2.673,209.93,-456.54,96.73,511.71,1.24,0.89,1.07
2.681,213.31,-461.95,98.09,518.19,1.27,0.9,1.08
2.688,218.09,-467.65,100.78,525.75,1.31,0.9,1.09
2.695,221.6,-472.21,102.18,531.54,1.34,0.92,1.1
2.703,224.64,-477.11,104.41,537.58,1.38,0.92,1.1
2.71,227.78,-481.07,106.48,542.82,1.41,0.93,1.11
2.718,230.36,-484.14,108.03,546.93,1.43,0.95,1.12
2.725,233.71,-487.47,109.52,551.58,1.45,0.95,1.12
2.732,235.09,-490.68,109.42,554.98,1.48,0.96,1.14
2.74,236.98,-492.78,109.02,557.57,1.5,0.99,1.14
2.747,240.07,-496.24,110.5,562.23,1.53,1.01,1.15
2.755,243.26,-500.54,111.92,567.66,1.55,1.02,1.16
2.762,246.93,-506.14,114.07,574.6,1.58,1.01,1.17
2.769,251.37,-512.42,117.33,582.69,1.61,1.01,1.19
2.777,254.93,-518.38,119.48,589.91,1.63,1.01,1.21
2.784,258.37,-522.54,120.79,595.32,1.64,1.03,1.22
2.791,262.2,-526.8,122.94,601.15,1.65,1.05,1.24
2.799,266.67,-531.34,124.97,607.5,1.66,1.07,1.26
2.806,270.83,-535.26,126.92,613.16,1.67,1.09,1.28
2.813,273.97,-539.11,126.74,617.87,1.68,1.12,1.3
2.82,277.27,-545.27,127.32,624.83,1.7,1.12,1.34
2.828,280.49,-551.49,128.57,631.94,1.73,1.12,1.37
2.835,282.85,-556.01,129.19,637.06,1.74,1.14,1.39
2.842,286.48,-561.05,131.37,643.52,1.76,1.15,1.42
2.849,290.64,-565.24,133.92,649.54,1.77,1.16,1.44
2.857,293.59,-567.68,134.98,653.2,1.77,1.19,1.46
2.864,296.6,-569.34,136.43,656.3,1.77,1.21,1.48
2.871,298.74,-570.03,136.08,657.8,1.77,1.24,1.5
2.878,301.05,-571.94,136.08,660.5,1.77,1.25,1.53
2.885,302.88,-573.81,136.19,662.97,1.78,1.27,1.56
2.893,305.97,-575.67,137.36,666.25,1.79,1.28,1.58
2.9,309.33,-577.84,138.57,669.92,1.8,1.29,1.6
2.907,313.93,-580.74,141.62,675.18,1.81,1.3,1.62
2.914,317.55,-582.16,143.03,678.39,1.81,1.32,1.63
2.921,321.06,-585.05,144.91,682.91,1.81,1.32,1.66
2.929,322.84,-587,144.5,685.33,1.82,1.34,1.68
2.936,326.25,-589.4,146.01,689.31,1.83,1.34,1.7
2.943,329.73,-591.69,147.37,693.21,1.83,1.34,1.72
2.95,333.17,-593.59,149.33,696.89,1.84,1.35,1.74
2.957,336.49,-594.73,151.29,699.87,1.84,1.36,1.76
2.964,339.78,-596.69,153,703.49,1.85,1.36,1.79
2.971,342.16,-596.69,153.86,704.83,1.84,1.38,1.81
2.979,343.73,-596.47,154.66,705.58,1.83,1.4,1.83
2.986,344.82,-597.07,155.52,706.81,1.82,1.4,1.86
2.993,345.94,-597,155.17,707.23,1.81,1.41,1.88
3,346.95,-596.81,155.19,707.56,1.81,1.41,1.91
3.007,348.09,-595.91,155,707.32,1.81,1.43,1.93
3.014,349.94,-596.34,156.37,708.89,1.81,1.43,1.96
3.021,352.63,-595.95,156.55,709.93,1.81,1.44,1.98
3.028,354.66,-595.18,156.5,710.3,1.81,1.46,2
3.036,357.55,-594.53,156.73,711.24,1.81,1.49,2.02
3.043,362.37,-596.16,159.33,715.61,1.81,1.49,2.05
3.05,367.38,-597.46,161.8,719.8,1.8,1.48,2.08
3.057,371.9,-598.48,164.01,723.46,1.79,1.48,2.11
3.064,376.2,-599.02,165.29,726.41,1.78,1.48,2.13
3.071,379.48,-599.18,166.36,728.49,1.76,1.5,2.15
3.078,382.2,-598.88,166.63,729.73,1.73,1.52,2.18
3.085,385.77,-601.04,168.9,733.89,1.71,1.51,2.21
3.092,388.22,-602.08,169.62,736.2,1.68,1.52,2.24
3.1,390.05,-603.11,169.3,737.93,1.66,1.52,2.27
3.107,391.38,-604.49,168.53,739.59,1.64,1.53,2.3
3.114,393.1,-607.62,168.33,743.01,1.64,1.53,2.32
3.121,394.74,-610.45,168.37,746.2,1.64,1.54,2.34
3.128,397.58,-614.25,170.42,751.27,1.64,1.54,2.36
3.135,401.01,-617.84,173.2,756.66,1.65,1.54,2.37
3.142,403.42,-621.78,175.6,761.7,1.65,1.54,2.38
3.149,405.87,-625.57,177.27,766.48,1.66,1.54,2.4
3.156,407.21,-627.84,178.44,769.31,1.67,1.54,2.41
3.163,408.04,-629.43,179.97,771.41,1.67,1.55,2.41
3.17,408.02,-629.48,179.96,771.43,1.69,1.57,2.41
3.177,408.69,-629.98,180.24,772.26,1.71,1.59,2.42
3.184,409.85,-630.71,180.72,773.58,1.74,1.61,2.42
3.191,411.44,-632.45,180.78,775.86,1.78,1.63,2.44
3.198,414.77,-635.49,182.27,780.45,1.81,1.66,2.46
3.205,417.21,-637.32,182.13,783.21,1.83,1.71,2.48
3.212,420.42,-640.5,183.14,787.74,1.85,1.74,2.51
3.219,423.78,-644.27,183.96,792.78,1.85,1.77,2.54
3.226,427.67,-649.28,185.92,799.39,1.85,1.78,2.58
3.233,432.1,-656.6,189.74,808.6,1.85,1.77,2.62
3.24,435.09,-662.98,191.5,815.79,1.84,1.76,2.65
3.247,436.83,-668.09,191.74,820.93,1.83,1.76,2.68
3.254,438.48,-672.69,193.13,825.88,1.83,1.77,2.69
3.261,439.71,-676.55,194.22,829.93,1.83,1.77,2.7
3.268,440.67,-678.65,194.08,832.12,1.83,1.79,2.69
3.275,441.63,-680.99,194.04,834.52,1.83,1.8,2.69
3.282,443.01,-681.63,192.41,835.4,1.85,1.83,2.69
3.289,447.02,-684.07,193.5,839.77,1.88,1.85,2.7
3.295,451.23,-686.65,194.95,844.45,1.92,1.88,2.73
3.302,455.63,-689.13,196.68,849.23,1.97,1.92,2.76
3.309,461.29,-693.47,201.04,856.8,2,1.94,2.8
3.316,465.47,-697.8,205.17,863.52,2.02,1.96,2.84
3.323,468.04,-701.78,208.21,868.85,2.02,1.96,2.88
3.33,469.88,-704.86,209.88,872.74,2,1.97,2.92
3.336,471.27,-707.86,210.1,875.96,1.97,1.96,2.96
3.343,472.88,-710.58,210.98,879.23,1.94,1.96,2.98
3.35,475.78,-714.37,213.04,884.35,1.9,1.93,3
3.357,476.32,-716.41,213.21,886.33,1.86,1.92,3.01
3.364,476.98,-717.51,212.64,887.44,1.82,1.92,3.01
3.371,477.49,-718.79,212.21,888.65,1.78,1.91,3.01
3.377,479.96,-721.34,212.6,892.13,1.76,1.89,3.01
3.384,482.53,-723.46,212.9,895.29,1.74,1.88,3.01
3.391,484.86,-726.57,213.63,899.24,1.75,1.87,3.02
3.398,486,-727.98,213.5,900.96,1.76,1.9,3.02
3.405,487.74,-730.02,214.22,903.72,1.77,1.91,3.03
3.411,489.1,-731.81,215.9,906.3,1.77,1.93,3.05
3.418,490.81,-735.21,218.91,910.69,1.77,1.94,3.09
3.425,492.45,-740.59,222.06,916.67,1.76,1.92,3.14
3.432,492.98,-745,224.51,921.12,1.74,1.91,3.2
3.438,492.43,-749.75,224.91,924.77,1.71,1.9,3.26
3.445,490.59,-752.88,223.09,925.89,1.69,1.91,3.3
3.452,490.36,-757.38,222.49,929.29,1.69,1.91,3.34
3.459,490.62,-761.2,222.09,932.45,1.7,1.93,3.37
3.465,490.55,-763.37,220.8,933.88,1.72,1.97,3.37
3.472,490.67,-766.31,219.03,935.93,1.77,2.01,3.36
3.479,492.41,-769.29,218.96,939.26,1.82,2.05,3.33
3.485,496.22,-774.18,220.75,945.69,1.89,2.06,3.3
3.492,500.08,-778.58,222.45,951.71,1.95,2.08,3.28
3.499,504.01,-783.45,225.59,958.5,2.02,2.1,3.27
3.505,508.92,-788.74,230.55,966.57,2.07,2.11,3.26
3.512,514.4,-793.77,236.76,975.05,2.1,2.11,3.27
3.519,517.2,-797.91,240,980.69,2.11,2.12,3.29
3.525,518.29,-801.73,241.52,984.75,2.11,2.12,3.32
3.532,518.82,-803.68,242.61,986.88,2.11,2.13,3.35
3.538,518.68,-806.04,243.21,988.88,2.11,2.13,3.4
3.545,517.97,-807.84,242.61,989.82,2.1,2.13,3.44
3.552,517.46,-809.97,241.95,991.14,2.1,2.13,3.48
3.558,517.46,-813.26,241.74,993.78,2.12,2.12,3.52
3.565,517.57,-816.37,242.08,996.46,2.14,2.13,3.55
3.571,518.01,-819.55,242.34,999.36,2.17,2.15,3.57
3.578,518.64,-821.56,242.64,1001.41,2.21,2.18,3.57
3.585,520.51,-825.32,245.3,1006.11,2.25,2.2,3.57
3.591,523.73,-830.34,249.2,1012.84,2.29,2.2,3.58
3.598,528.79,-835.61,253.65,1020.88,2.32,2.21,3.58
3.604,533.11,-840.95,257.07,1028.34,2.35,2.22,3.61
3.611,537.5,-846.59,260.64,1036.12,2.37,2.22,3.64
3.617,541.08,-850.27,263.02,1041.58,2.37,2.25,3.68
3.624,542.71,-852.97,264.06,1044.9,2.37,2.27,3.72
3.63,543.18,-855.89,264.52,1047.64,2.36,2.27,3.77
3.637,541.6,-858.16,262.96,1048.3,2.34,2.29,3.81
3.643,540.23,-860.08,261.36,1048.76,2.32,2.3,3.84
3.65,540.05,-862.41,260.34,1050.33,2.31,2.3,3.85
3.656,539.98,-864.45,258.98,1051.63,2.3,2.31,3.86
3.663,541.16,-866.52,259.22,1054,2.29,2.31,3.86
3.669,543.74,-869.95,260.62,1058.48,2.28,2.3,3.87
3.675,547.1,-874.38,262.33,1064.27,2.28,2.3,3.89
3.682,550.33,-879.02,263.58,1070.05,2.28,2.31,3.92
3.688,552.5,-884.29,264.91,1075.83,2.29,2.33,3.97
3.695,556.39,-891.17,268.01,1084.24,2.31,2.34,4.04
3.701,558.96,-895.99,269.17,1089.81,2.33,2.36,4.09
3.707,559.55,-899.56,268.66,1092.92,2.34,2.38,4.14
3.714,560.63,-902.53,269,1096,2.36,2.39,4.17
3.72,561.77,-904.66,270.04,1098.59,2.37,2.41,4.17
3.727,562.16,-905.96,270.41,1099.95,2.39,2.43,4.16
3.733,561.45,-905.66,270.23,1099.3,2.4,2.46,4.13
3.739,560.52,-904.91,269.45,1098.02,2.41,2.47,4.08
3.746,559.1,-905.18,268.59,1097.31,2.41,2.47,4.04
3.752,558.37,-905.94,268.36,1097.51,2.41,2.46,4
3.758,558.06,-908.06,269.19,1099.3,2.41,2.44,3.98
3.765,557.72,-909.8,268.97,1100.51,2.42,2.43,3.97
3.771,556.75,-911.93,268.22,1101.6,2.43,2.44,3.97
3.777,556.19,-913.51,267.32,1102.42,2.45,2.45,3.98
3.784,556.25,-915.68,267.68,1104.33,2.47,2.46,4
3.79,556.72,-918.72,269.79,1107.6,2.5,2.47,4.03
3.796,557.68,-921.05,272.24,1110.61,2.52,2.47,4.05
3.803,558.6,-922.37,273.73,1112.53,2.54,2.48,4.07
3.809,558.63,-922.48,273.69,1112.63,2.57,2.51,4.09
3.815,558.26,-922.29,272.99,1112.11,2.6,2.55,4.09
3.822,557.64,-922.98,272.63,1112.29,2.64,2.58,4.09
3.828,557.89,-924.77,272.85,1113.95,2.68,2.6,4.08
3.834,557.71,-925.73,272.06,1114.46,2.72,2.62,4.06
3.841,558.14,-928.38,272.9,1117.08,2.76,2.63,4.02
3.847,556.66,-929,271.58,1116.54,2.79,2.65,3.96
3.853,556.05,-929.77,271.36,1116.82,2.81,2.67,3.88
3.859,556.12,-931.02,272.47,1118.17,2.83,2.68,3.8
3.866,555.54,-932.45,273.1,1119.23,2.84,2.68,3.72
3.872,557.03,-935.83,276.06,1123.51,2.83,2.66,3.64
3.878,558.74,-938.59,278.02,1127.14,2.81,2.66,3.6
3.885,561.51,-941.85,280.35,1131.8,2.78,2.65,3.59
3.891,563.29,-945.61,281.99,1136.22,2.75,2.63,3.62
3.897,565.05,-949.36,283.55,1140.6,2.73,2.61,3.68
3.903,565.65,-951.78,284.61,1143.17,2.71,2.6,3.75
3.91,563.62,-953.11,283.41,1142.98,2.7,2.59,3.83
3.916,562.2,-953.32,281.79,1142.06,2.7,2.58,3.9
3.922,560.73,-952.84,279.97,1140.49,2.72,2.59,3.95
3.928,558.46,-951.66,277.95,1137.89,2.74,2.6,3.98
3.935,558.03,-951.09,277.49,1137.09,2.77,2.61,4
3.941,558.5,-950.25,278.34,1136.82,2.8,2.62,4
3.947,558.99,-950.59,279.72,1137.69,2.83,2.63,3.99
3.953,559.16,-950.2,280.24,1137.57,2.85,2.64,3.98
3.96,559.32,-949.94,280.93,1137.6,2.86,2.65,3.95
3.966,558.81,-949.99,281.37,1137.5,2.86,2.65,3.93
3.972,556.69,-948.93,281.04,1135.49,2.85,2.65,3.89
3.978,552.82,-947.16,278.37,1131.46,2.81,2.63,3.85
3.985,548.73,-943.44,274.83,1125.48,2.77,2.63,3.78
3.991,544.29,-938.65,270.79,1118.32,2.73,2.63,3.71
3.997,541.16,-933.41,268.02,1111.72,2.68,2.65,3.64
4.003,537.97,-929.81,265.7,1106.6,2.66,2.65,3.59
4.01,536.52,-926.92,264.54,1103.18,2.64,2.65,3.55
4.016,535.18,-923.36,262.97,1099.17,2.64,2.67,3.5
4.022,533.44,-919.98,261.01,1095.01,2.65,2.69,3.46
4.029,530.87,-916.6,259.04,1090.45,2.67,2.73,3.42
4.035,529.06,-913.75,257.4,1086.79,2.68,2.75,3.37
4.041,528.45,-911.54,257.03,1084.54,2.7,2.77,3.31
4.048,528.46,-910.13,257.44,1083.46,2.7,2.78,3.24
4.054,528.19,-909.35,258.44,1082.91,2.69,2.77,3.17
4.06,527.85,-908.77,258.52,1082.27,2.66,2.76,3.09
4.067,527.19,-906.82,257.67,1080.11,2.6,2.75,3
4.073,526.98,-904.61,256.7,1077.93,2.55,2.74,2.91
4.079,526.96,-902.74,255.99,1076.18,2.49,2.73,2.83
4.086,527.35,-900.73,255.94,1074.67,2.44,2.72,2.76
4.092,527.88,-900.19,255.79,1074.45,2.39,2.71,2.71
4.098,527.72,-900.5,255.93,1074.66,2.34,2.68,2.67
4.105,525.55,-899.47,254.08,1072.29,2.3,2.67,2.64
4.111,522.93,-897.95,251.06,1069.02,2.25,2.66,2.6
4.117,521.53,-897.33,249.94,1067.55,2.2,2.63,2.56
4.124,520.87,-897.03,249.39,1066.84,2.15,2.61,2.53
4.13,519.2,-894.57,247.54,1063.53,2.09,2.62,2.47
4.137,518.32,-893.88,246.48,1062.28,2.04,2.6,2.42
4.143,517.67,-892.74,245.8,1060.84,1.98,2.58,2.36
4.149,517.04,-890.74,244.24,1058.49,1.92,2.57,2.29
4.156,517.05,-888.76,243.39,1056.64,1.85,2.54,2.22
4.162,516.93,-886.22,242.8,1054.3,1.79,2.51,2.15
4.168,516.46,-884.03,241.38,1051.9,1.74,2.47,2.11
4.175,516.18,-882.33,240.34,1050.1,1.7,2.43,2.1
4.181,516.63,-881.35,241.03,1049.66,1.66,2.36,2.1
4.188,516.29,-879.92,240.66,1048.21,1.63,2.3,2.1
4.194,514.53,-878.54,239.21,1045.85,1.6,2.24,2.12
4.201,513.05,-876.92,238.73,1043.64,1.55,2.18,2.12
4.207,511.55,-874.72,237.8,1040.85,1.5,2.14,2.11
4.214,510.02,-872.49,236.56,1037.94,1.44,2.09,2.09
4.22,508.28,-869.64,235.14,1034.37,1.36,2.06,2.04
4.227,507.8,-866.86,234.75,1031.7,1.28,2.02,1.96
4.233,506.34,-863.93,233.07,1028.14,1.2,2,1.87
4.24,507.19,-861.74,233.42,1026.8,1.12,1.97,1.77
4.246,507.24,-858.99,232.47,1024.3,1.04,1.97,1.67
4.253,506.89,-855.6,230.64,1020.88,0.95,1.99,1.58
4.259,507.66,-854.15,230.45,1020,0.88,1.99,1.5
4.266,507.33,-852.14,229.8,1018,0.81,2,1.43
4.272,506.86,-851.44,229.72,1017.16,0.75,1.98,1.39
4.279,506.74,-851.69,230.38,1017.46,0.69,1.95,1.35
4.286,505.85,-851.63,229.48,1016.77,0.65,1.91,1.33
4.292,504.22,-852.58,227.78,1016.38,0.61,1.86,1.32
4.299,501.82,-851.86,225.54,1014.09,0.59,1.83,1.3
4.305,500.17,-852.56,225.56,1013.86,0.57,1.77,1.28
4.312,498.56,-852.36,226.53,1013.11,0.57,1.72,1.24
4.318,495.78,-851.69,226.44,1011.17,0.56,1.68,1.19
4.325,492.79,-849.41,225.72,1007.61,0.54,1.67,1.11
4.332,489.67,-845.26,223.31,1002.06,0.49,1.69,1.02
4.338,486.66,-840.91,220.06,996.19,0.45,1.71,0.94
4.345,484.95,-836.72,218.11,991.39,0.42,1.73,0.87
4.351,484.28,-831.95,217.03,986.8,0.39,1.74,0.8
4.358,482.72,-825.69,214.22,980.14,0.38,1.77,0.75
4.365,482.88,-820.97,212.93,975.97,0.38,1.79,0.72
4.371,482.56,-816.74,211.27,971.89,0.41,1.8,0.72
4.378,484.32,-814.29,212.27,970.93,0.44,1.81,0.74
4.385,484.79,-811.52,212.32,968.85,0.49,1.83,0.77
4.391,484.7,-808.74,212.16,966.44,0.54,1.85,0.83
4.398,484.48,-806.07,212.27,964.12,0.6,1.87,0.89
4.405,483.34,-802.67,211.48,960.54,0.66,1.89,0.96
4.411,481.71,-799.49,209.97,956.72,0.72,1.91,1.03
4.418,479.83,-797.4,209.57,953.94,0.78,1.92,1.09
4.425,478.49,-795.31,208.95,951.39,0.83,1.94,1.13
4.431,477.38,-793.72,207.56,949.19,0.88,1.96,1.15
4.438,478,-793.62,206.61,949.21,0.92,1.97,1.15
4.445,481.18,-794.58,208.84,952.1,0.96,1.97,1.15
4.451,485.7,-796.82,213.04,957.19,1,1.96,1.16
4.458,491,-799.72,217.56,963.31,1.03,1.96,1.2
4.464,496.74,-804.66,222.93,971.56,1.05,1.93,1.27
4.471,501.89,-810.35,227.02,979.84,1.07,1.9,1.39
4.478,506.52,-815.62,229.89,987.24,1.07,1.87,1.52
4.484,510.61,-820.33,232.52,993.85,1.07,1.84,1.65
4.491,513.64,-823.76,233.78,998.53,1.07,1.82,1.77
4.498,516.07,-827.9,234.82,1003.44,1.08,1.76,1.9
4.504,517.78,-830.46,235.07,1006.49,1.09,1.72,2.02
4.511,517.86,-832.79,234.76,1008.38,1.11,1.66,2.13
4.517,516.29,-833.84,234.44,1008.37,1.13,1.6,2.23
4.524,513.37,-832.69,232.53,1005.48,1.13,1.53,2.3
4.531,509.78,-831.35,230.62,1002.09,1.13,1.45,2.35
4.537,506.04,-828.35,228.79,997.29,1.1,1.36,2.38
4.544,502.64,-823.44,227.33,991.15,1.07,1.29,2.37
4.551,499.57,-817.59,225.07,984.21,1.01,1.23,2.34
4.558,497.36,-811.93,224.34,978.23,0.95,1.19,2.3
4.564,495.76,-806.11,223.69,972.44,0.88,1.16,2.25
4.571,494.61,-802.12,224.11,968.64,0.81,1.12,2.19
4.578,493.09,-796.64,222.21,962.89,0.72,1.12,2.1
4.585,491.39,-792.34,220.26,958.01,0.64,1.12,2.01
4.592,489.21,-787.78,218.29,952.67,0.57,1.13,1.9
4.598,485.84,-781.74,215.06,945.21,0.51,1.17,1.76
4.605,482.52,-776.45,211.55,938.33,0.46,1.2,1.63
4.612,479.58,-771.84,209.2,932.47,0.43,1.22,1.48
4.619,476.82,-766.89,207.56,926.59,0.4,1.24,1.33
4.625,473.74,-762.23,205.01,920.57,0.38,1.26,1.18
4.632,470.49,-758.58,203.41,915.52,0.36,1.28,1.03
4.639,467.91,-754.65,202.57,910.76,0.34,1.3,0.88
4.646,465.99,-750.57,202.12,906.28,0.3,1.33,0.72
4.653,463.58,-747.56,201.2,902.35,0.27,1.34,0.58
4.66,462.33,-746.39,201.56,900.82,0.22,1.34,0.46
4.667,460.39,-745.44,201.29,898.97,0.18,1.33,0.34
4.673,459.66,-743.99,200.67,897.26,0.13,1.33,0.24
4.68,457.87,-741.09,198.64,893.48,0.08,1.34,0.13
4.687,455.89,-738.8,196.23,890.03,0.05,1.33,0.05
4.694,453.64,-735.22,193.41,885.29,0.01,1.33,-0.04
4.701,452.98,-733.88,193.57,883.88,-0.01,1.3,-0.1
4.708,453.82,-733.49,195.28,884.36,-0.04,1.25,-0.16
4.714,454.5,-734.02,197.53,885.65,-0.07,1.19,-0.2
4.721,454.57,-733.79,198.78,885.78,-0.11,1.14,-0.23
4.728,455.83,-735.26,201.31,888.21,-0.16,1.07,-0.26
4.735,456.34,-735.89,202.55,889.27,-0.23,1.02,-0.27
4.742,455.62,-735.97,202.37,888.93,-0.3,0.96,-0.29
4.749,455.88,-736.85,203.62,890.08,-0.38,0.89,-0.3
4.756,453.82,-735.87,202.43,887.94,-0.46,0.83,-0.32
4.763,452.95,-734.39,201.55,886.06,-0.54,0.77,-0.34
4.77,451.04,-732.53,199.26,883.03,-0.62,0.71,-0.36
4.777,447.68,-729.7,195.86,878.2,-0.71,0.66,-0.38
4.784,446.44,-729.45,195.09,877.19,-0.79,0.59,-0.4
4.79,445.94,-729.96,194.73,877.28,-0.88,0.52,-0.42
4.797,447.62,-732.68,195.75,880.62,-0.97,0.43,-0.43
4.804,450.26,-736.4,198.4,885.66,-1.06,0.34,-0.44
4.811,451.89,-738.78,199.6,888.73,-1.14,0.26,-0.45
4.818,453.25,-739.97,201.16,890.76,-1.22,0.18,-0.45
4.825,452.84,-739.19,200.46,889.75,-1.29,0.12,-0.44
4.832,450.51,-736.94,198.24,886.19,-1.35,0.06,-0.43
4.839,447.47,-734.85,195.97,882.4,-1.4,-0.02,-0.41
4.846,443.76,-730.28,192.54,875.96,-1.45,-0.08,-0.4
4.853,440.35,-725.12,189.79,869.33,-1.49,-0.15,-0.4
4.86,437.63,-721.13,189.42,864.54,-1.51,-0.22,-0.39
4.868,435.46,-718.07,189.54,860.91,-1.53,-0.3,-0.39
4.875,432.66,-715.88,189.04,857.56,-1.55,-0.36,-0.39
4.882,430.61,-714.32,188.93,855.2,-1.58,-0.39,-0.39
4.889,429.57,-714.12,189.87,854.72,-1.62,-0.41,-0.41
4.896,428.5,-714.01,189.77,854.07,-1.68,-0.41,-0.43
4.903,427.8,-714.66,189.49,854.2,-1.74,-0.41,-0.46
4.91,426.65,-714.41,188.03,853.09,-1.79,-0.4,-0.5
4.917,426.47,-714.94,187.75,853.38,-1.84,-0.42,-0.53
4.924,423.84,-713.72,184.87,850.42,-1.87,-0.42,-0.57
4.932,422.25,-711.83,183.29,847.7,-1.9,-0.43,-0.61
4.939,419.64,-708.88,180.31,843.28,-1.91,-0.45,-0.65
4.946,417.74,-706.94,178.96,840.42,-1.92,-0.49,-0.67
4.953,415.11,-704,177.42,836.31,-1.92,-0.52,-0.7
4.96,412.73,-700.35,176.3,831.82,-1.91,-0.56,-0.73
4.967,410.44,-697.01,175.89,827.78,-1.9,-0.59,-0.76
4.974,408.24,-692.61,175.53,822.91,-1.89,-0.61,-0.8
4.982,406.2,-687.79,174.35,817.59,-1.89,-0.62,-0.85
4.989,405.54,-685.71,175.05,815.66,-1.87,-0.65,-0.88
4.996,404.64,-683.79,175.43,813.68,-1.87,-0.68,-0.91
5.003,401.7,-681.39,174.14,809.93,-1.87,-0.7,-0.94
5.01,400.13,-679.83,174.53,807.91,-1.88,-0.73,-0.95
5.017,399.48,-679.57,176.09,807.71,-1.9,-0.79,-0.96
5.025,397.36,-677.25,175.7,804.63,-1.92,-0.83,-0.97
5.032,394.07,-673.51,174.19,799.53,-1.94,-0.86,-0.97
5.039,390.78,-669.64,172.22,794.22,-1.96,-0.89,-0.98
5.046,387.61,-665.2,170.35,788.51,-1.98,-0.92,-0.98
5.054,385.51,-660.98,169.59,783.76,-1.99,-0.95,-0.98
5.061,384.22,-657.09,168.82,779.68,-2.01,-0.98,-0.98
5.068,383.2,-653.44,168.51,776.03,-2.03,-1,-0.98
5.076,382.26,-651.36,169.47,774.02,-2.05,-1.03,-0.98
5.083,382.08,-649.73,170.3,772.74,-2.07,-1.07,-0.97
5.09,381.97,-649.44,171.02,772.61,-2.09,-1.11,-0.97
5.098,380.85,-648.5,170.87,771.23,-2.11,-1.15,-0.96
5.105,381.14,-648.48,172.21,771.65,-2.13,-1.2,-0.96
5.112,379.56,-645.71,170.85,768.24,-2.15,-1.22,-0.96
5.12,377.68,-642.35,169.23,764.13,-2.17,-1.23,-0.96
5.127,375.31,-638.06,167.37,758.94,-2.18,-1.23,-0.97
5.134,373.37,-634.29,166.78,754.68,-2.19,-1.25,-0.97
5.142,372.4,-630.4,167.5,751.09,-2.2,-1.26,-0.97
5.149,370.9,-627.03,167.55,747.54,-2.21,-1.27,-0.96
5.156,369.04,-623.32,167.77,743.55,-2.23,-1.27,-0.94
5.164,367.72,-621.29,168.27,741.31,-2.25,-1.28,-0.92
5.171,366.76,-621.76,169.38,741.48,-2.26,-1.31,-0.88
5.179,365.36,-621.23,169.6,740.39,-2.29,-1.32,-0.86
5.186,363.24,-620.4,168.82,738.47,-2.31,-1.33,-0.84
5.193,360.9,-619.59,168.2,736.5,-2.32,-1.34,-0.82
5.201,358.04,-618,166.28,733.32,-2.34,-1.34,-0.81
5.208,354.47,-615.15,163.15,728.48,-2.35,-1.33,-0.8
5.215,351.34,-611.3,160.75,723.16,-2.35,-1.31,-0.81
5.223,348.58,-608.05,158.87,718.66,-2.35,-1.31,-0.82
5.23,346.57,-604.42,157.69,714.36,-2.33,-1.32,-0.83
5.238,344.78,-600.51,156.29,709.87,-2.32,-1.32,-0.85
5.245,342.84,-596.07,155.64,705.03,-2.3,-1.32,-0.87
5.253,341.28,-592.24,155,700.89,-2.29,-1.32,-0.89
5.26,339.39,-588.26,154.02,696.39,-2.27,-1.32,-0.91
5.268,338.34,-585.69,154.51,693.82,-2.26,-1.33,-0.94
5.275,337.9,-584.06,155.34,692.41,-2.25,-1.35,-0.95
5.282,336.82,-582.54,155.67,690.68,-2.24,-1.36,-0.98
5.29,335.66,-581.41,156.03,689.24,-2.23,-1.37,-1
5.297,333.95,-578.96,155.93,686.32,-2.22,-1.37,-1.03
5.305,331.94,-575.66,155.84,682.53,-2.21,-1.36,-1.07
5.312,330.21,-572.3,156.4,678.99,-2.2,-1.36,-1.1
5.32,328.16,-568.71,156.17,674.92,-2.19,-1.35,-1.13
5.327,325.58,-564.8,154.62,670.01,-2.18,-1.36,-1.14
5.335,322.16,-560.05,151.89,663.71,-2.17,-1.35,-1.15
5.342,319.48,-555.96,150.94,658.74,-2.16,-1.36,-1.16
5.35,316.69,-551.25,150.13,653.23,-2.15,-1.34,-1.17
5.357,314.48,-547.9,149.66,649.22,-2.14,-1.34,-1.17
5.365,311.09,-545.66,148.06,645.32,-2.13,-1.34,-1.17
5.373,308.86,-543.86,147.42,642.58,-2.12,-1.33,-1.18
5.38,306.53,-541.43,145.75,639.02,-2.13,-1.31,-1.2
5.388,305.24,-539.53,144.93,636.61,-2.13,-1.29,-1.21
5.395,304.17,-537.36,144.71,634.2,-2.13,-1.28,-1.23
5.403,302.98,-535.6,144.09,632,-2.13,-1.27,-1.25
5.41,302.81,-534.88,145.03,631.52,-2.12,-1.28,-1.25
5.418,302.53,-534.08,146.12,630.97,-2.11,-1.29,-1.26
5.425,299.48,-530.92,145.13,626.6,-2.1,-1.28,-1.27
5.433,297.65,-527.4,145.04,622.72,-2.09,-1.28,-1.28
5.44,295.25,-524.18,144,618.61,-2.08,-1.28,-1.29
5.448,292.37,-520.48,142.9,613.84,-2.07,-1.28,-1.3
5.456,289.69,-517.45,142.39,609.87,-2.06,-1.28,-1.3
5.463,288.42,-515.28,143.12,607.6,-2.05,-1.29,-1.32
5.471,286.67,-513.43,143.78,605.36,-2.05,-1.3,-1.33
5.478,284.68,-511.23,143.59,602.5,-2.04,-1.3,-1.33
5.486,283.49,-508.98,144.17,600.17,-2.04,-1.31,-1.34
5.494,282.81,-506.97,144.63,598.26,-2.03,-1.32,-1.34
5.501,282.72,-505.11,145.14,596.77,-2.04,-1.34,-1.33
5.509,280.2,-501.29,142.64,591.74,-2.04,-1.33,-1.32
5.516,276.73,-496.6,139.87,585.45,-2.05,-1.32,-1.32
5.524,274.19,-493,138.26,580.82,-2.05,-1.32,-1.32
5.532,271.03,-489.05,136.82,575.62,-2.04,-1.31,-1.32
5.539,268.18,-484.79,135.15,570.27,-2.04,-1.3,-1.32
5.547,267.12,-480.65,134.81,566.17,-2.03,-1.28,-1.33
5.555,267.37,-477.22,135.4,563.53,-2.02,-1.27,-1.34
5.562,267.1,-474.63,135.73,561.29,-2,-1.26,-1.35
5.57,266.79,-472.14,136.03,559.1,-1.99,-1.26,-1.38
5.578,266.09,-469.96,135.89,556.9,-1.97,-1.26,-1.4
5.585,265.36,-467.34,135.53,554.25,-1.96,-1.25,-1.42
5.593,264.2,-465.33,135.35,551.95,-1.95,-1.25,-1.44
5.601,262.98,-463.85,135.87,550.25,-1.93,-1.26,-1.46
5.608,261.09,-460.95,134.84,546.65,-1.92,-1.25,-1.49
5.616,259.5,-457.91,133.78,543.07,-1.92,-1.25,-1.51
5.624,259.08,-456.04,134.97,541.58,-1.91,-1.27,-1.53
5.631,257.33,-452.38,134.94,537.65,-1.91,-1.27,-1.56
5.639,255.32,-449.15,133.92,533.72,-1.91,-1.27,-1.57
5.647,252.38,-445.91,131.8,529.06,-1.91,-1.27,-1.59
5.655,249.69,-443.31,130.38,525.23,-1.91,-1.28,-1.6
5.662,247.29,-440.77,128.86,521.57,-1.91,-1.29,-1.61
5.67,244.36,-437.8,127,517.21,-1.91,-1.29,-1.63
5.678,241.83,-435.6,125.39,513.76,-1.9,-1.29,-1.64
5.685,238.27,-432.1,122.31,508.37,-1.9,-1.29,-1.66
5.693,235.32,-429.19,120.26,504.02,-1.88,-1.28,-1.67
5.701,234.23,-427.93,120.19,502.43,-1.87,-1.29,-1.67
5.709,233.23,-427.4,120.9,501.68,-1.84,-1.3,-1.68
5.716,231.33,-426.13,120.39,499.59,-1.82,-1.31,-1.68
5.724,230.13,-424.59,120.76,497.81,-1.79,-1.31,-1.69
5.732,229.04,-423.26,120.42,496.1,-1.77,-1.32,-1.69
5.74,227.86,-421.67,120.81,494.29,-1.75,-1.31,-1.7
5.747,224.59,-418.54,118.94,489.65,-1.73,-1.3,-1.71
5.755,220.73,-414.94,117.13,484.37,-1.71,-1.27,-1.71
5.763,216.62,-410.83,114.37,478.32,-1.7,-1.24,-1.72
5.771,213.28,-408.36,112.88,474.33,-1.68,-1.23,-1.72
5.779,211.48,-407.43,113.99,472.99,-1.66,-1.23,-1.72
5.786,209.49,-405.81,113.6,470.61,-1.65,-1.23,-1.72
5.794,207.45,-403.69,112.32,467.57,-1.64,-1.23,-1.72
5.802,206.17,-403.15,112,466.45,-1.62,-1.25,-1.71
5.81,203.81,-400.24,109.99,462.41,-1.61,-1.24,-1.71
5.818,200.52,-395.67,106.91,456.28,-1.6,-1.2,-1.72
5.825,198.7,-392.45,106.01,452.48,-1.59,-1.19,-1.73
5.833,196.01,-389.31,104,448.11,-1.58,-1.18,-1.72
5.841,192.8,-385.71,100.88,442.86,-1.56,-1.16,-1.72
5.849,190.03,-382.39,98.85,438.3,-1.55,-1.14,-1.72
5.857,186.26,-378.61,95.74,432.67,-1.53,-1.11,-1.72
5.864,183.4,-375.74,93.6,428.46,-1.51,-1.1,-1.72
5.872,180.47,-371.93,90.98,423.3,-1.49,-1.08,-1.72
5.88,179.62,-370.67,90.71,421.76,-1.47,-1.08,-1.71
5.888,176.84,-367.52,88.41,417.33,-1.46,-1.06,-1.72
5.896,174.92,-365.43,86.32,414.23,-1.45,-1.05,-1.71
5.904,172.88,-363.46,84.74,411.31,-1.43,-1.03,-1.7
5.911,170.04,-360.56,82.69,407.13,-1.42,-1.01,-1.69
5.919,167.94,-358.31,81.14,403.94,-1.4,-1,-1.68
5.927,165.92,-355.98,79.51,400.72,-1.39,-0.99,-1.67
5.935,163.88,-353.82,77.37,397.53,-1.37,-0.98,-1.65
5.943,160.33,-350.02,74.5,392.13,-1.36,-0.96,-1.64
5.951,158.35,-348.88,73.56,390.13,-1.35,-0.96,-1.62
5.959,155.6,-345.73,72.12,385.93,-1.34,-0.95,-1.6
5.966,153.13,-342.14,71.27,381.56,-1.33,-0.93,-1.59
5.974,150.81,-338.97,70,377.55,-1.32,-0.92,-1.58
5.982,149.03,-335.99,68.25,373.84,-1.32,-0.91,-1.56
5.99,147.03,-333.52,66.77,370.56,-1.31,-0.89,-1.55
5.998,145.61,-331.17,65.62,367.67,-1.31,-0.88,-1.53
6.006,143.81,-329.42,64.32,365.15,-1.3,-0.88,-1.51
6.014,141.54,-327.55,62.81,362.31,-1.3,-0.87,-1.5
6.022,139.36,-325.97,61.79,359.86,-1.3,-0.86,-1.48
6.03,138.72,-325.63,62.33,359.39,-1.29,-0.87,-1.46
6.037,136.4,-323.12,60.16,355.85,-1.29,-0.85,-1.44
6.045,133.57,-319.79,57.34,351.27,-1.28,-0.83,-1.43
6.053,129.9,-315.85,54.06,345.77,-1.27,-0.8,-1.41
6.061,127.33,-311.91,52.01,340.89,-1.26,-0.79,-1.39
6.069,124.98,-308.58,50.82,336.78,-1.24,-0.76,-1.38
6.077,122.24,-304.97,49,332.19,-1.22,-0.75,-1.36
6.085,119.87,-302.49,47.87,328.87,-1.19,-0.75,-1.34
6.093,117.25,-298.7,46.14,324.18,-1.17,-0.73,-1.33
6.101,114.79,-295.42,44.73,320.08,-1.14,-0.71,-1.31
6.109,113.41,-293.54,45.02,317.89,-1.11,-0.71,-1.29
6.117,110.94,-290.54,44.49,314.16,-1.08,-0.69,-1.27
6.125,109.92,-287.9,44.83,311.42,-1.05,-0.67,-1.26
6.133,108.76,-285.31,44.05,308.5,-1.02,-0.65,-1.24
6.14,107.43,-282.89,42.91,305.63,-1,-0.63,-1.22
6.148,106.48,-280.21,41.96,302.68,-0.98,-0.62,-1.2
6.156,106.04,-277.12,41.95,299.67,-0.98,-0.6,-1.19
6.164,104.91,-273.9,41.35,296.2,-0.97,-0.57,-1.18
6.172,104.49,-271.76,42.01,294.17,-0.96,-0.57,-1.16
6.18,103.75,-269.21,42.15,291.58,-0.96,-0.56,-1.15
6.188,103.92,-267.29,42.8,289.96,-0.95,-0.56,-1.14
6.196,103.04,-264.73,41.99,287.16,-0.95,-0.55,-1.13
6.204,101.52,-261.78,40.34,283.66,-0.94,-0.54,-1.12
6.212,100.21,-259.33,39.19,280.77,-0.93,-0.54,-1.1
6.22,98.03,-256.62,37.14,277.2,-0.92,-0.53,-1.08
6.228,95.83,-253.09,34.11,272.77,-0.91,-0.52,-1.06
6.236,94.2,-250.66,32.04,269.68,-0.9,-0.51,-1.05
6.244,92.52,-248.4,30.4,266.81,-0.89,-0.51,-1.03
6.252,91.07,-246.44,29.84,264.42,-0.87,-0.5,-1.01
6.26,90.08,-243.56,28.87,261.28,-0.86,-0.48,-1
6.268,89.77,-241.65,28.91,259.4,-0.85,-0.48,-0.99
6.276,89.18,-240.41,28.75,258.02,-0.84,-0.48,-0.98
6.284,87.33,-236.92,27.07,253.95,-0.83,-0.45,-0.98
6.292,86.65,-234.6,26.34,251.47,-0.81,-0.44,-0.97
6.3,86.3,-233.68,26.78,250.55,-0.79,-0.46,-0.96
6.308,84.52,-231.55,25.84,247.84,-0.78,-0.45,-0.95
6.316,84.87,-230.23,26.91,246.84,-0.77,-0.46,-0.95
6.324,83.06,-228.16,25.11,244.11,-0.75,-0.46,-0.94
6.332,82.81,-225.75,24.9,241.74,-0.74,-0.45,-0.93
6.34,82.06,-222.51,24.56,238.42,-0.72,-0.44,-0.93
6.348,81.18,-218.55,24.58,234.43,-0.71,-0.42,-0.94
6.356,80.47,-215.62,24.24,231.42,-0.7,-0.41,-0.94
6.364,79.51,-212.21,23.94,227.88,-0.68,-0.4,-0.94
6.373,78.7,-209.36,24.26,224.98,-0.67,-0.39,-0.93
6.381,78.41,-207.3,24.58,222.99,-0.65,-0.4,-0.93
6.389,77.67,-204.98,24.05,220.52,-0.64,-0.39,-0.92
6.397,77.43,-203.17,24,218.75,-0.63,-0.4,-0.91
6.405,77.52,-200.66,24.54,216.51,-0.62,-0.39,-0.9
6.413,77.07,-199.2,24.62,215,-0.61,-0.4,-0.89
6.421,76.46,-196.63,24,212.33,-0.61,-0.39,-0.88
6.429,76.02,-194.04,22.74,209.63,-0.6,-0.38,-0.87
6.437,76.42,-191.89,22.94,207.82,-0.6,-0.38,-0.86
6.445,76.13,-190.49,23.17,206.44,-0.59,-0.38,-0.85
6.453,74.8,-187.96,21.91,203.48,-0.58,-0.37,-0.84
6.461,73.74,-185.79,20.74,200.96,-0.57,-0.36,-0.83
6.47,72.69,-183.35,19.53,198.2,-0.56,-0.36,-0.83
6.478,71.28,-180.45,18.53,194.9,-0.56,-0.34,-0.83
6.486,70.31,-179.45,17.73,193.54,-0.55,-0.35,-0.82
6.494,68.96,-177.32,16.52,190.97,-0.54,-0.34,-0.81
6.502,68.9,-176.99,17.24,190.71,-0.52,-0.36,-0.8
6.51,68.35,-176.12,17.52,189.73,-0.51,-0.37,-0.79
6.518,67.26,-174.41,16.5,187.66,-0.51,-0.36,-0.78
6.526,66.56,-172.89,16.16,185.97,-0.51,-0.36,-0.78
6.535,66.67,-171.83,16.48,185.04,-0.5,-0.36,-0.78
6.543,66.44,-170.05,16.72,183.33,-0.5,-0.36,-0.78
6.551,66.82,-169.94,17.44,183.44,-0.49,-0.37,-0.77
6.559,66.09,-169.09,17.39,182.38,-0.48,-0.38,-0.76
6.567,65.67,-167.34,16.95,180.56,-0.48,-0.37,-0.76
6.575,64.8,-165.85,16.25,178.8,-0.47,-0.36,-0.76
6.583,63.79,-165.29,16.31,177.92,-0.46,-0.37,-0.75
6.591,62.22,-164.06,15.8,176.18,-0.45,-0.37,-0.74
6.6,60.93,-161.89,14.79,173.61,-0.44,-0.35,-0.74
6.608,59.2,-159.27,13.69,170.47,-0.43,-0.34,-0.75
6.616,58.74,-159.02,13.96,170.09,-0.41,-0.35,-0.74
6.624,58.29,-157.72,13.59,168.7,-0.4,-0.35,-0.74
6.632,57.75,-155.5,12.59,166.35,-0.4,-0.33,-0.75
6.64,56.76,-152.33,10.79,162.92,-0.39,-0.31,-0.76
6.649,56.65,-150.8,10.88,161.45,-0.39,-0.3,-0.76
6.657,55.76,-149.31,10.63,159.74,-0.38,-0.3,-0.77
6.665,55.26,-148.8,11.52,159.15,-0.37,-0.3,-0.76
6.673,54.18,-147.88,11.08,157.88,-0.36,-0.3,-0.76
6.681,53.42,-148.16,11.05,157.88,-0.35,-0.3,-0.76
6.689,53.52,-147.47,11.07,157.27,-0.35,-0.3,-0.76
6.698,54.02,-146.08,10.91,156.13,-0.35,-0.28,-0.76
6.706,54.01,-145.81,11.48,155.91,-0.34,-0.28,-0.76
6.714,53.1,-146.44,11.85,156.22,-0.33,-0.29,-0.75
6.722,53.53,-146.88,12.97,156.86,-0.32,-0.29,-0.75
6.73,54.49,-146.56,13.61,156.96,-0.32,-0.29,-0.75
6.738,53.51,-145.34,12.6,155.39,-0.31,-0.27,-0.75
6.747,50.77,-144.58,10.57,153.6,-0.3,-0.26,-0.74
6.755,50.18,-144.65,10.31,153.46,-0.28,-0.25,-0.74
6.763,51.01,-145.26,11.06,154.36,-0.27,-0.26,-0.73
6.771,52.33,-145.46,11.93,155.04,-0.26,-0.26,-0.73
6.779,53.87,-145.36,12.32,155.51,-0.26,-0.26,-0.74
6.787,54.68,-145.36,13.22,155.86,-0.24,-0.26,-0.74
6.795,53.65,-143.83,12.14,153.99,-0.24,-0.24,-0.75
6.804,52.82,-143.09,11.34,152.95,-0.23,-0.23,-0.75
6.812,50.85,-141.94,9.7,151.09,-0.22,-0.22,-0.75
6.82,50.91,-142.16,10,151.33,-0.21,-0.22,-0.76
6.828,52.49,-143.68,11.77,153.42,-0.2,-0.24,-0.76
6.836,53.29,-144.28,13.28,154.38,-0.19,-0.25,-0.76
6.844,51.85,-142.65,11.49,152.22,-0.19,-0.24,-0.77
6.853,52.57,-143.13,12.49,152.98,-0.19,-0.24,-0.77
6.861,53.89,-143.01,13.7,153.44,-0.19,-0.24,-0.78
6.869,54.01,-143.09,13.61,153.54,-0.19,-0.25,-0.78
6.877,55.16,-143.29,14.53,154.23,-0.19,-0.25,-0.79
6.885,54.52,-142.43,13.66,153.12,-0.18,-0.25,-0.79
6.894,55.5,-142.59,15.28,153.77,-0.18,-0.26,-0.79
6.902,54.26,-141.25,13.84,151.94,-0.18,-0.25,-0.8
6.91,54.59,-140.37,14.88,151.35,-0.18,-0.25,-0.8
6.918,53.42,-138.86,13.4,149.38,-0.18,-0.24,-0.8
6.926,50.89,-137.03,10.03,146.52,-0.18,-0.23,-0.8
6.934,49.6,-136.25,8.26,145.23,-0.18,-0.23,-0.79
6.943,48.48,-135.24,7.11,143.85,-0.18,-0.23,-0.79
6.951,48.7,-135.41,7.69,144.11,-0.18,-0.24,-0.79
6.959,48.39,-135.3,7.57,143.89,-0.18,-0.25,-0.78
6.967,48.47,-135.2,7.81,143.84,-0.18,-0.26,-0.78
6.975,49.33,-134.96,9.08,143.98,-0.18,-0.27,-0.78
6.984,50.37,-134.49,10.87,144.02,-0.18,-0.27,-0.79
6.992,49.99,-133.1,10.39,142.56,-0.18,-0.27,-0.79
7,50.72,-133.22,12.29,143.08,-0.17,-0.29,-0.78
7.008,51.03,-132.59,12.62,142.63,-0.17,-0.3,-0.78
7.016,50.76,-130.67,12.91,140.78,-0.17,-0.29,-0.79
7.024,49.63,-127.64,12.34,137.51,-0.16,-0.26,-0.8
7.033,49.54,-126.46,13.12,136.45,-0.16,-0.26,-0.81
7.041,49.48,-124.94,12.97,135,-0.16,-0.25,-0.81
7.049,48.56,-122.61,12.21,132.44,-0.16,-0.23,-0.81
7.057,48.32,-120.62,11.98,130.49,-0.16,-0.21,-0.82
7.065,48.44,-120.18,12.97,130.22,-0.15,-0.22,-0.81
7.074,49.34,-120.31,14.49,130.84,-0.15,-0.23,-0.81
7.082,49.46,-120.56,15.28,131.21,-0.15,-0.25,-0.8
7.09,49.75,-120.42,15.34,131.19,-0.15,-0.26,-0.79
7.098,50.36,-119.51,15.55,130.62,-0.15,-0.26,-0.79
7.107,51.16,-118.17,16.42,129.81,-0.15,-0.26,-0.79
7.115,50.91,-117.42,16.27,129.01,-0.15,-0.26,-0.79
7.123,50.09,-116.27,15.12,127.51,-0.15,-0.27,-0.79
7.131,49.5,-115.4,14.5,126.4,-0.15,-0.27,-0.78
7.139,48.01,-114.42,12.64,124.72,-0.15,-0.27,-0.77
7.148,46.51,-113.3,10.86,122.96,-0.15,-0.26,-0.77
7.156,45.41,-111.49,9.45,120.76,-0.15,-0.25,-0.77
7.164,44.81,-109.9,8.83,119.01,-0.16,-0.24,-0.77
7.172,45.05,-109.39,9.59,118.69,-0.16,-0.24,-0.77
7.181,45.84,-109.64,11.25,119.37,-0.15,-0.26,-0.76
7.189,46.88,-109.34,12.63,119.63,-0.16,-0.27,-0.76
7.197,47.24,-108.78,13.59,119.37,-0.16,-0.28,-0.76
7.205,46.51,-108.15,13.6,118.51,-0.16,-0.28,-0.75
7.214,46.49,-106.9,13.18,117.31,-0.17,-0.28,-0.75
7.222,46.6,-106.85,13.29,117.32,-0.17,-0.28,-0.74
7.23,46.47,-107.59,13.97,118.03,-0.17,-0.3,-0.73
7.238,45.74,-108.74,14.42,118.85,-0.17,-0.31,-0.72
7.247,44.49,-109.09,14.03,118.65,-0.17,-0.31,-0.72
7.255,42.46,-108.06,11.91,116.71,-0.18,-0.3,-0.72
7.263,41.41,-106.98,9.86,115.14,-0.19,-0.28,-0.72
7.271,41.89,-106.79,8.81,115.05,-0.2,-0.28,-0.72
7.279,42.34,-106.83,8.62,115.24,-0.2,-0.28,-0.72
7.288,42.91,-106.2,8.38,114.85,-0.21,-0.27,-0.72
7.296,43.94,-106.2,9.18,115.3,-0.21,-0.27,-0.73
7.304,44.8,-107.05,11.04,116.57,-0.21,-0.27,-0.73
7.312,44.49,-108.1,11.71,117.49,-0.21,-0.28,-0.73
7.321,45.82,-109.87,13.11,119.77,-0.21,-0.29,-0.74
7.329,46.39,-112.27,14.35,122.32,-0.2,-0.3,-0.73
7.337,48.14,-114.05,15.65,124.78,-0.19,-0.3,-0.74
7.345,49.13,-117.12,16.34,128.06,-0.19,-0.32,-0.73
7.354,49.76,-119.83,16.78,130.83,-0.18,-0.33,-0.73
7.362,50.58,-122.03,17.26,133.22,-0.17,-0.32,-0.73
7.37,50.76,-123.32,16.71,134.4,-0.17,-0.3,-0.74
7.378,49.78,-124.38,14.19,134.72,-0.17,-0.28,-0.74
7.386,48.89,-125.02,11.77,134.75,-0.16,-0.24,-0.75
7.395,48.27,-127.13,10.03,136.36,-0.14,-0.21,-0.75
7.403,49.55,-131.24,10.72,140.69,-0.12,-0.21,-0.74
7.411,50.33,-135.96,10.13,145.33,-0.09,-0.2,-0.73
7.419,50.76,-140.55,9.21,149.72,-0.05,-0.19,-0.71
7.427,52.07,-145.22,9.77,154.59,-0.01,-0.18,-0.7
7.435,54.25,-149.47,10.74,159.37,0.03,-0.15,-0.69
7.444,55.78,-153.62,10.96,163.8,0.07,-0.12,-0.68
7.452,58.16,-158.48,12.36,169.27,0.11,-0.1,-0.66
7.46,61.82,-164.28,15.59,176.21,0.16,-0.09,-0.62
7.468,65.49,-169.64,18.36,182.76,0.2,-0.06,-0.58
7.476,68.01,-174.14,19.72,187.99,0.24,-0.03,-0.52
7.484,70.75,-178.97,21.06,193.59,0.28,0,-0.46
7.492,74.67,-185.26,23.48,201.11,0.32,0,-0.4
7.5,77.3,-191.36,25.17,207.91,0.37,0.01,-0.35
7.508,79.15,-197.21,26.44,214.14,0.42,0.03,-0.29
7.516,81.19,-201.96,27.13,219.36,0.47,0.07,-0.24
7.524,83.15,-207.5,27.24,225.19,0.51,0.1,-0.17
7.532,84.92,-212.36,27.44,230.35,0.56,0.14,-0.12
7.54,86.81,-217.36,27.86,235.71,0.6,0.18,-0.06
7.548,89.8,-223.5,29.96,242.72,0.64,0.21,0
7.556,93.81,-230.77,33.35,251.33,0.68,0.22,0.05
7.564,96.83,-237.1,35.43,258.55,0.71,0.24,0.1
7.572,98.86,-243.13,36.95,265.05,0.74,0.26,0.14
7.58,100.27,-247.18,36.69,269.26,0.76,0.29,0.18
7.588,102.19,-251.38,37.03,273.87,0.78,0.32,0.2
7.596,104.11,-256.14,38.23,279.12,0.8,0.34,0.23
7.604,106.49,-261.81,39.86,285.44,0.82,0.34,0.27
7.612,109.75,-268.17,42.11,292.81,0.84,0.33,0.3
7.62,111.25,-272.58,41.9,297.37,0.86,0.35,0.33
7.627,112.97,-276.74,42.19,301.87,0.88,0.37,0.36
7.635,114.52,-280.18,41.56,305.52,0.9,0.39,0.37
7.643,116.86,-283.83,42.02,309.81,0.91,0.41,0.39
7.651,118.25,-287.7,42.42,313.93,0.93,0.43,0.41
7.659,120.96,-292.99,44.76,320.12,0.95,0.43,0.44
7.667,124.3,-298.34,47.67,326.7,0.97,0.42,0.46
7.674,127.26,-302.98,50.24,332.44,0.98,0.43,0.48
7.682,128.81,-305.41,51.12,335.38,1,0.45,0.49
7.69,130.03,-307.74,51.73,338.07,1.01,0.48,0.5
7.698,132.11,-311.51,53.12,342.51,1.03,0.48,0.52
7.706,133.45,-315.42,53.71,346.67,1.05,0.48,0.54
7.713,134.43,-318.9,53.24,350.15,1.07,0.49,0.56
7.721,135.33,-322.02,52.67,353.25,1.09,0.5,0.57
7.729,137.66,-325.39,54.33,357.46,1.11,0.51,0.59
7.737,140.25,-328.2,55.6,361.22,1.13,0.52,0.6
7.744,142.7,-331.71,57.03,365.57,1.15,0.53,0.61
7.752,146.23,-336.72,60.05,371.98,1.17,0.51,0.63
7.76,149.82,-341.45,63.33,378.22,1.19,0.51,0.65
7.768,152.22,-345.33,64.97,382.94,1.21,0.52,0.67
7.775,155.47,-350.04,67.07,388.84,1.22,0.52,0.7
7.783,158.12,-354.34,67.44,393.83,1.23,0.53,0.73
7.791,161.57,-358.83,68.8,399.5,1.23,0.55,0.77
7.798,165.06,-362.45,70.29,404.42,1.22,0.57,0.8
7.806,167.13,-366.48,71.2,409.04,1.22,0.6,0.84
7.814,170.03,-371.93,72.33,415.3,1.22,0.6,0.88
7.821,173.56,-377.01,73.63,421.52,1.23,0.61,0.91
7.829,175.84,-381.7,74.32,426.77,1.24,0.62,0.95
7.837,177.78,-386.11,73.98,431.46,1.25,0.63,0.98
7.844,179.18,-390.17,73.67,435.62,1.27,0.66,1.01
7.852,181,-393.33,72.99,439.09,1.28,0.69,1.03
7.86,184.24,-397.56,74.15,444.41,1.29,0.71,1.05
7.867,187.73,-402.41,75.61,450.44,1.3,0.73,1.08
7.875,191.29,-407.87,76.97,457.03,1.32,0.74,1.11
7.882,195.41,-413.48,78.74,464.05,1.34,0.75,1.13
7.89,199.61,-419.97,81.46,472.08,1.36,0.77,1.16
7.897,202.87,-424.89,82.39,477.99,1.38,0.8,1.18
7.905,206.62,-431.9,83.85,486.06,1.41,0.82,1.2
7.912,210.28,-438.18,85.1,493.42,1.44,0.85,1.22
7.92,214.35,-445.85,87.1,502.31,1.48,0.86,1.25
7.927,218.27,-452.5,88.41,510.11,1.51,0.89,1.28
7.935,222.98,-459.52,90.27,518.68,1.55,0.9,1.3
7.942,227.92,-467.05,93.22,527.99,1.58,0.91,1.33
7.95,232.18,-473.44,94.92,535.78,1.61,0.92,1.35
7.957,235.5,-477.86,95.52,541.24,1.64,0.95,1.37
7.965,239.43,-482.25,97.17,547.12,1.66,0.98,1.39
7.972,242.26,-485.71,98,551.55,1.69,1.02,1.41
7.979,245.1,-489.55,98.63,556.29,1.72,1.05,1.42
7.987,248.85,-494.41,100.35,562.52,1.74,1.07,1.44
7.994,253.72,-499.67,103.77,569.93,1.77,1.08,1.46
8.001,257.99,-504.32,106.13,576.33,1.79,1.1,1.47
8.009,261.83,-509.34,108.64,582.91,1.8,1.12,1.5
8.016,266.32,-514.96,111.64,590.4,1.82,1.12,1.52
8.023,271.26,-520.89,114.48,598.34,1.84,1.12,1.55
8.031,275.27,-524.8,115.69,603.8,1.86,1.14,1.57
8.038,279.19,-528.85,117.17,609.39,1.88,1.16,1.59
8.045,284.37,-533.62,120.3,616.52,1.89,1.16,1.61
8.053,289.07,-537.68,122.87,622.7,1.91,1.17,1.63
8.06,293.07,-541.36,125.22,628.2,1.92,1.18,1.66
8.067,295.83,-543.4,126.22,631.46,1.93,1.19,1.68
8.074,298.48,-545.1,127.36,634.39,1.92,1.21,1.71
8.082,300.32,-545.79,127.36,635.84,1.92,1.24,1.73
8.089,302.15,-546.49,128.72,637.59,1.92,1.27,1.75
8.096,304.65,-548.31,129.92,640.57,1.93,1.29,1.78
8.103,307.25,-551.21,131.01,644.51,1.94,1.29,1.81
8.111,310.37,-553.42,132.72,648.24,1.95,1.31,1.82
8.118,313.16,-555.99,133.67,651.97,1.96,1.33,1.85
8.125,317.06,-559.8,136.19,657.61,1.98,1.34,1.88
8.132,321.24,-563.66,139.18,663.54,2,1.35,1.9
8.139,325.41,-567.37,142.07,669.32,2.01,1.36,1.92
8.147,329.54,-570.46,144.74,674.52,2.01,1.37,1.95
8.154,332.92,-573.09,146.81,678.84,2.02,1.38,1.97
8.161,336.33,-575.32,148.52,682.76,2.02,1.4,2
8.168,339.19,-577.03,148.87,685.69,2.03,1.42,2.02
8.175,342.34,-578.8,149.28,688.83,2.04,1.44,2.05
8.182,346.38,-581.65,151.18,693.65,2.05,1.45,2.08
8.19,350.81,-583.7,153.26,698.04,2.06,1.47,2.11
8.197,354.71,-585.47,155.05,701.88,2.06,1.5,2.13
8.204,358.71,-587.24,156.82,705.77,2.06,1.52,2.17
8.211,362.12,-588.62,158.72,709.08,2.05,1.54,2.2
8.218,365.84,-590.88,160.18,713.18,2.04,1.55,2.23
8.225,369.77,-594.44,162.17,718.6,2.02,1.54,2.27
8.232,373.57,-596.96,164.93,723.26,2,1.54,2.3
8.239,375.78,-598.76,167.26,726.43,1.97,1.54,2.33
8.246,377.33,-599.54,168.82,728.23,1.93,1.55,2.37
8.254,378.23,-600.24,170.16,729.59,1.89,1.54,2.4
8.261,377.69,-599.98,169.89,729.03,1.84,1.53,2.44
8.268,377.34,-599.95,169.09,728.64,1.8,1.52,2.49
8.275,376.41,-600.01,167.77,727.9,1.78,1.52,2.53
8.282,375.18,-599.94,166,726.8,1.77,1.54,2.56
8.289,375.3,-601.09,165.64,727.74,1.78,1.56,2.58
8.296,374.58,-600.46,163.64,726.38,1.8,1.61,2.6
8.303,375.81,-601.02,162.63,727.26,1.83,1.64,2.61
8.31,378.51,-603.14,163.18,730.53,1.87,1.65,2.62
8.317,380.35,-603.52,162.38,731.62,1.91,1.68,2.61
8.324,383.72,-605.15,164.35,735.16,1.95,1.7,2.6
8.332,388.36,-607.43,167.76,740.22,1.98,1.69,2.59
8.339,392.29,-609.02,170.7,744.27,2,1.69,2.58
8.346,396.51,-611,173,748.64,2.01,1.69,2.57
8.353,400.33,-612.8,175.06,752.62,2.02,1.69,2.56
8.36,403.8,-613.95,177,755.86,2.02,1.7,2.55
8.367,406.12,-614.65,177.23,757.72,2.03,1.72,2.55
8.374,408.14,-615.98,177.42,759.93,2.04,1.74,2.55
8.381,409.37,-617.77,177.76,762.12,2.05,1.75,2.56
8.388,410.37,-620.28,179.92,765.19,2.07,1.75,2.56
8.395,411.19,-621.67,180.64,766.93,2.08,1.75,2.56
8.402,411.58,-623.61,182.1,769.06,2.1,1.75,2.57
8.409,411.71,-624.49,181.65,769.74,2.13,1.76,2.58
8.416,412.56,-626.09,182.84,771.77,2.15,1.77,2.59
8.423,412.1,-626.6,182.48,771.85,2.18,1.8,2.59
8.43,412.81,-627.12,183.04,772.78,2.21,1.82,2.57
8.437,414.73,-629.27,184.74,775.96,2.23,1.84,2.56
8.444,416.53,-631.41,185.51,778.84,2.26,1.86,2.54
8.451,417.26,-633.67,184.85,780.91,2.28,1.88,2.53
8.458,419.01,-636.14,185.1,783.91,2.29,1.9,2.51
8.465,420.69,-639.2,185.78,787.45,2.31,1.91,2.49
8.472,424.73,-643.09,188.61,793.43,2.33,1.91,2.49
8.479,428.72,-647.33,192.4,799.91,2.33,1.91,2.49
8.486,434.23,-653.06,197.6,808.75,2.33,1.9,2.52
8.493,439.52,-658.68,201.46,817.08,2.31,1.88,2.57
8.5,444.07,-662.6,204.82,823.52,2.29,1.88,2.63
8.507,447.95,-668.01,208.07,830.78,2.26,1.87,2.71
8.514,450.78,-673.51,211.71,837.64,2.21,1.85,2.8
8.52,452.8,-678.23,214.16,843.14,2.15,1.83,2.88
8.527,452.54,-681.62,212.96,845.43,2.07,1.81,2.96
8.534,452.69,-684.98,213.2,848.28,1.99,1.79,3.04
8.541,451.9,-686.85,211.58,848.97,1.91,1.79,3.1
8.548,451.37,-688.58,209.88,849.66,1.83,1.79,3.14
8.555,449.89,-690.21,208.02,849.74,1.76,1.79,3.16
8.562,447.65,-692.09,206.14,849.63,1.72,1.79,3.16
8.569,447.51,-695.27,205.99,852.12,1.68,1.77,3.15
8.575,445.29,-696.87,203.4,851.63,1.65,1.77,3.12
8.582,443.84,-698.05,201.48,851.39,1.61,1.78,3.06
8.589,445.24,-700.9,202.5,854.7,1.57,1.76,3
8.596,446.35,-703.27,203.65,857.49,1.52,1.74,2.92
8.603,448.14,-705.83,205.29,860.91,1.47,1.71,2.87
8.61,450.29,-708.93,207.43,865.08,1.41,1.68,2.84
8.617,452.33,-712.46,208.13,869.21,1.35,1.63,2.86
8.624,455.7,-715.93,209.72,874.19,1.29,1.59,2.92
8.63,459.23,-719.65,211.3,879.45,1.24,1.55,3.02
8.637,461.74,-723.41,212.12,884.04,1.2,1.54,3.14
8.644,464.38,-727.61,213.76,889.25,1.18,1.54,3.27
8.651,464.71,-730.53,211.81,891.34,1.16,1.56,3.37
8.658,464.87,-732.89,209.41,892.8,1.14,1.61,3.42
8.665,466.15,-736.64,209.45,896.55,1.14,1.64,3.45
8.671,468.97,-741.75,211.76,902.76,1.12,1.66,3.43
8.678,470.6,-747.3,213.08,908.47,1.09,1.67,3.4
8.685,472.23,-751.74,213.91,913.17,1.04,1.69,3.34
8.692,475.13,-757.46,215.35,919.71,0.98,1.68,3.28
8.699,477.21,-762.93,217.32,925.75,0.92,1.67,3.23
8.705,479.3,-767.64,219.47,931.21,0.85,1.65,3.2
8.712,480,-772.14,220.72,935.58,0.79,1.63,3.2
8.719,479.47,-776.35,220.33,938.7,0.74,1.61,3.22
8.725,477.85,-779.6,218.37,940.11,0.69,1.6,3.27
8.732,476.22,-783.58,217.07,942.29,0.67,1.59,3.34
8.739,475.12,-787.57,215.78,944.76,0.66,1.58,3.42
8.746,475.68,-791.79,215.24,948.44,0.66,1.57,3.49
8.752,478.71,-796.48,216.19,954.09,0.67,1.58,3.56
8.759,482.87,-802.56,218.02,961.66,0.72,1.58,3.65
8.766,487.53,-808.34,220.1,969.3,0.78,1.61,3.75
8.772,492.75,-814.43,222.35,977.51,0.86,1.65,3.85
8.779,499.03,-821.35,226.38,987.37,0.94,1.68,3.96
8.786,503.85,-827.2,229.17,995.31,1.01,1.74,4.06
8.792,508.17,-832.59,232.67,1002.79,1.07,1.81,4.13
8.799,510.21,-839.02,235.22,1009.75,1.1,1.85,4.18
8.805,512.68,-845.01,238.63,1016.77,1.1,1.86,4.18
8.812,512.49,-847.92,238.58,1019.08,1.06,1.88,4.14
8.818,511.38,-850.4,238.33,1020.54,0.99,1.86,4.07
8.825,509.06,-851.65,237.67,1020.26,0.91,1.84,3.95
8.831,506.24,-850.87,235.22,1017.63,0.81,1.8,3.8
8.838,504.61,-848.81,232.31,1014.44,0.7,1.76,3.65
8.845,504.69,-847.27,231.03,1012.89,0.62,1.71,3.53
8.851,506.25,-846.46,230.37,1012.84,0.56,1.67,3.49
8.858,509.22,-847.8,231.57,1015.72,0.55,1.63,3.53
8.864,510.62,-849.41,231.97,1017.86,0.57,1.62,3.63
8.871,510.9,-849.71,230.63,1017.94,0.62,1.63,3.76
8.878,511.01,-849.57,229.35,1017.59,0.68,1.65,3.88
8.884,511.38,-848.39,229,1016.72,0.75,1.68,3.97
8.891,512.51,-848.39,231.2,1017.78,0.81,1.69,4.02
8.897,514.58,-849.49,234.85,1020.58,0.86,1.68,4.05
8.904,515.6,-849.92,237.8,1022.14,0.89,1.68,4.03
8.91,515.56,-849.58,239.89,1022.32,0.91,1.66,3.98
8.917,514.9,-848.88,240.54,1021.55,0.9,1.65,3.9
8.924,514.43,-848.54,241.04,1021.16,0.87,1.61,3.81
8.93,513.85,-847.39,240.91,1019.88,0.84,1.58,3.71
8.937,512.12,-845.6,239.99,1017.31,0.81,1.55,3.62
8.943,510.04,-843.01,238.27,1013.7,0.78,1.53,3.55
8.95,508.55,-840.87,237.52,1010.99,0.77,1.52,3.51
8.957,507.08,-840.51,237.84,1010.03,0.76,1.5,3.52
8.963,505.79,-839.09,238.46,1008.34,0.76,1.5,3.56
8.97,504.57,-838.92,239.91,1007.93,0.76,1.5,3.63
8.977,502.91,-836.93,240.37,1005.56,0.76,1.53,3.7
8.983,500.8,-835.08,240.27,1002.94,0.75,1.57,3.77
8.99,498.45,-831.96,239.45,998.97,0.75,1.61,3.83
8.996,495.73,-827.8,238.3,993.87,0.73,1.66,3.85
9.003,491.35,-823.14,235.89,987.23,0.72,1.7,3.83
9.01,486.28,-817.72,232.67,979.42,0.69,1.73,3.77
9.016,482.64,-812.04,230.09,972.26,0.65,1.76,3.67
9.023,479.78,-806.82,228.41,966.08,0.62,1.78,3.54
9.03,476.08,-801.99,225.08,959.43,0.59,1.79,3.41
9.036,473.61,-797.24,222.69,953.67,0.57,1.81,3.28
9.043,471.02,-793.13,220.86,948.52,0.57,1.82,3.16
9.05,469.17,-790.27,220.12,945.04,0.58,1.84,3.07
9.056,467.61,-786.72,219.52,941.16,0.59,1.87,2.99
9.063,466.6,-783.85,219.61,938.28,0.61,1.9,2.93
9.07,466.16,-782.66,220.63,937.3,0.64,1.9,2.89
9.076,465.33,-781.14,220.85,935.67,0.66,1.91,2.86
9.083,463.39,-779.17,219.64,932.78,0.67,1.92,2.84
9.09,461.57,-778.31,218.98,931,0.68,1.92,2.81
9.096,461.54,-778.74,220.21,931.63,0.69,1.89,2.78
9.103,460.71,-777.58,220.31,930.28,0.68,1.88,2.74
9.11,459.36,-775.84,219.89,928.06,0.67,1.87,2.69
9.117,458.19,-774.12,219.66,925.99,0.65,1.85,2.63
9.123,456.66,-770.62,218.68,922.08,0.63,1.85,2.57
9.13,455.88,-768.19,218.03,919.5,0.61,1.84,2.5
9.137,455.11,-765.31,215.59,916.13,0.58,1.83,2.45
9.143,454.24,-761.16,212.45,911.5,0.56,1.84,2.4
9.15,454.12,-758.43,211.62,908.97,0.54,1.84,2.36
9.157,453.53,-756.14,210.87,906.59,0.53,1.83,2.33
9.164,452.25,-755.07,210.11,904.88,0.51,1.82,2.31
9.17,451.42,-753.41,210.16,903.09,0.48,1.82,2.27
9.177,450.19,-753.26,209.91,902.3,0.45,1.81,2.24
9.184,449.4,-753.48,210.43,902.21,0.42,1.79,2.21
9.191,447.97,-752.57,209.55,900.53,0.38,1.77,2.17
9.197,446.02,-751.46,207.5,898.16,0.34,1.76,2.14
9.204,444.49,-749.5,206.16,895.45,0.31,1.75,2.1
9.211,444.81,-749.08,205.76,895.16,0.29,1.73,2.08
9.218,444.58,-747.38,204.94,893.44,0.27,1.73,2.05
9.225,445.04,-747.02,204.14,893.18,0.26,1.73,2.03
9.231,447.26,-746.97,205.64,894.59,0.26,1.74,2.01
9.238,449.74,-746.95,206.89,896.11,0.26,1.75,1.99
9.245,452.49,-747.59,208.88,898.48,0.26,1.75,1.97
9.252,454.6,-747.48,210.12,899.74,0.25,1.74,1.94
9.258,456.17,-747.88,211.02,901.08,0.24,1.73,1.92
9.265,457.08,-747.89,211.54,901.67,0.21,1.71,1.91
9.272,457.59,-748.28,211.93,902.34,0.18,1.68,1.9
9.279,457.49,-749.9,212.65,903.8,0.15,1.62,1.92
9.285,458.14,-751.84,212.87,905.79,0.12,1.54,1.94
9.292,459.06,-753.22,213.2,907.49,0.09,1.47,1.97
9.299,461.12,-754.66,214.52,910.03,0.06,1.41,2
9.306,463.32,-755.23,216.02,911.97,0.03,1.36,2.02
9.313,465,-755.44,216.11,913.02,-0.01,1.33,2.04
9.32,465.11,-755.12,215.58,912.7,-0.05,1.3,2.04
9.326,463.03,-754.7,213.43,910.78,-0.1,1.27,2.02
9.333,461.9,-753.35,212.07,908.77,-0.16,1.25,1.97
9.34,460.19,-751.98,210.21,906.33,-0.21,1.22,1.92
9.347,459.66,-750.67,209.55,904.82,-0.26,1.18,1.85
9.354,458.13,-747.62,207.01,900.92,-0.3,1.16,1.78
9.361,456.19,-745.56,204.94,897.76,-0.32,1.12,1.72
9.367,455.44,-742.98,203.62,894.94,-0.33,1.07,1.68
9.374,454.46,-739.11,202.09,890.87,-0.32,1.02,1.64
9.381,454.41,-736.66,202.02,888.8,-0.31,0.95,1.62
9.388,452.99,-733.87,200.84,885.5,-0.3,0.87,1.61
9.395,451.44,-732.55,200.27,883.48,-0.29,0.79,1.6
9.402,451.59,-732.75,202.04,884.13,-0.29,0.7,1.58
9.409,449.96,-732.37,201.97,882.96,-0.3,0.64,1.56
9.416,449.47,-732.59,202.58,883.03,-0.34,0.6,1.52
9.423,449.13,-733.97,203.01,884.1,-0.39,0.57,1.48
9.43,449.39,-736.78,204.31,886.87,-0.46,0.55,1.42
9.437,449.72,-739.49,204.93,889.43,-0.53,0.54,1.36
9.444,449.96,-741.5,205.25,891.3,-0.61,0.54,1.3
9.451,450.29,-742.23,205,892.02,-0.69,0.54,1.23
9.458,449.23,-741.77,203.55,890.77,-0.77,0.54,1.17
9.465,446.83,-740.08,200.59,887.47,-0.83,0.54,1.11
9.472,444.76,-738.73,198.66,884.87,-0.88,0.5,1.06
9.478,444.85,-738.74,199.44,885.1,-0.92,0.43,1.02
9.485,443.7,-738.08,198.66,883.8,-0.95,0.36,0.99
9.492,441.26,-734.3,196.2,878.87,-0.97,0.31,0.95
9.499,437.76,-729.79,193.6,872.76,-0.98,0.27,0.91
9.506,435.89,-725.53,192.15,867.94,-0.98,0.22,0.87
9.514,434.42,-722.16,190.81,864.08,-0.98,0.18,0.82
9.52,433.43,-719.34,189.52,860.95,-0.98,0.14,0.77
9.528,432.92,-716.44,189.94,858.36,-0.99,0.12,0.7
9.535,431.69,-714.27,189.62,855.86,-1.01,0.1,0.62
9.542,430.05,-712.85,188.43,853.58,-1.05,0.08,0.55
9.549,427.74,-710.4,186.86,850.03,-1.09,0.06,0.48
9.556,425.09,-706.59,185.24,845.15,-1.13,0.06,0.4
9.563,424.06,-704.8,185.55,843.21,-1.18,0.02,0.35
9.57,423.12,-703.73,185.6,841.85,-1.24,-0.03,0.32
9.577,421.94,-701.54,185.13,839.33,-1.3,-0.07,0.28
9.584,420.69,-699.52,185.98,837.19,-1.36,-0.1,0.26
9.591,419.5,-698.58,187.1,836.07,-1.43,-0.15,0.23
9.598,416.38,-696.17,185.4,832.1,-1.5,-0.18,0.2
9.605,413.05,-694.37,183.55,828.52,-1.57,-0.23,0.17
9.613,410.75,-693.04,182.36,826,-1.64,-0.28,0.13
9.62,409.59,-691.59,182.97,824.34,-1.69,-0.33,0.08
9.627,407.97,-688.96,182.57,821.24,-1.74,-0.38,0.02
9.634,405.5,-686.39,181.39,817.6,-1.78,-0.43,-0.02
9.641,404.08,-684.46,181.21,815.23,-1.82,-0.48,-0.06
9.648,402.57,-680.93,180.71,811.4,-1.86,-0.51,-0.11
9.656,399.83,-677.24,178.73,806.52,-1.9,-0.53,-0.15
9.663,396.38,-673.58,177.36,801.43,-1.94,-0.57,-0.2
9.67,393.33,-669.5,175.76,796.13,-1.98,-0.6,-0.25
9.677,390.06,-665.68,173.48,790.8,-2.01,-0.65,-0.29
9.684,386.7,-661.57,170.92,785.13,-2.04,-0.69,-0.34
9.692,384.28,-657.64,169.46,780.31,-2.06,-0.74,-0.4
9.699,381.71,-654.16,168.45,775.89,-2.08,-0.79,-0.45
9.706,378.52,-651.41,167.52,771.81,-2.09,-0.85,-0.5
9.714,376.03,-649.2,167.45,768.7,-2.09,-0.92,-0.54
9.721,373.73,-646.14,167.4,764.98,-2.1,-0.98,-0.59
9.728,372.61,-643.83,168.74,762.78,-2.1,-1.04,-0.63
9.735,370.07,-639.95,168.09,758.12,-2.11,-1.07,-0.67
9.743,367.25,-635.66,166.96,752.87,-2.12,-1.1,-0.71
9.75,363.85,-630.95,164.92,746.78,-2.13,-1.12,-0.73
9.757,360.27,-626.91,162.87,741.17,-2.14,-1.14,-0.75
9.765,357.23,-622.78,160.68,735.72,-2.16,-1.15,-0.76
9.772,354.81,-619.47,158.96,731.37,-2.17,-1.16,-0.77
9.78,352.3,-616.14,157.46,727,-2.18,-1.17,-0.77
9.787,350.14,-612.63,156.44,722.76,-2.18,-1.18,-0.79
9.794,348.51,-609.15,155.95,718.92,-2.17,-1.2,-0.8
9.802,345.88,-605.07,155.3,714.04,-2.16,-1.2,-0.81
9.809,343.45,-601.11,155.59,709.58,-2.15,-1.21,-0.83
9.817,341.39,-597.57,156.92,705.88,-2.13,-1.22,-0.84
9.824,339.51,-595.06,158.39,703.18,-2.12,-1.23,-0.85
9.832,335.68,-591.7,157.39,698.25,-2.11,-1.22,-0.86
9.839,332.56,-588.76,156.11,693.97,-2.11,-1.21,-0.87
9.846,331.05,-588.3,156.83,693.03,-2.1,-1.22,-0.88
9.854,329.53,-586.24,156.4,690.46,-2.1,-1.22,-0.9
9.861,327.33,-583.92,155.15,687.15,-2.09,-1.21,-0.92
9.869,325.91,-583.07,154.59,685.63,-2.09,-1.21,-0.94
9.876,325.31,-583.77,155.45,686.13,-2.09,-1.23,-0.96
9.884,326.1,-584.7,157.34,687.73,-2.09,-1.25,-0.98
9.891,326.02,-584.35,157.04,687.33,-2.09,-1.27,-0.99
9.899,324.94,-581.93,154.84,684.26,-2.1,-1.27,-1.02
9.906,323.74,-579.38,153.05,681.11,-2.1,-1.26,-1.04
9.914,322.19,-577.02,150.88,677.88,-2.1,-1.26,-1.07
9.921,320.74,-574.44,148.72,674.51,-2.09,-1.27,-1.09
9.928,318.58,-570.65,146.04,669.67,-2.09,-1.26,-1.11
9.936,317.29,-567.7,144.61,666.23,-2.09,-1.27,-1.12
9.943,315.25,-563.42,142.49,661.16,-2.09,-1.27,-1.14
9.951,314.66,-560.46,142.73,658.41,-2.08,-1.29,-1.15
9.958,313.24,-557.4,142.84,655.14,-2.07,-1.31,-1.16
9.966,310.6,-552.15,141.11,649.04,-2.07,-1.3,-1.18
9.973,308.51,-547.13,140.64,643.67,-2.06,-1.3,-1.21
9.981,306.38,-542.26,140.37,638.45,-2.05,-1.31,-1.23
9.989,303.43,-537.62,139.04,632.81,-2.03,-1.31,-1.25
9.996,299.28,-532.24,136.85,625.75,-2.02,-1.31,-1.28
10.004,295.06,-527.28,134.93,619.1,-2,-1.31,-1.31
10.011,290.95,-522.51,132.45,612.55,-1.98,-1.31,-1.33
10.019,286.55,-518.57,129.64,606.49,-1.96,-1.31,-1.35
10.026,282.45,-514.78,127.76,600.92,-1.93,-1.32,-1.37
10.034,277.97,-509.99,124.98,594.12,-1.9,-1.32,-1.39
10.042,275.37,-505.11,124.38,588.58,-1.88,-1.32,-1.41
10.049,273.8,-501.29,125.29,584.77,-1.85,-1.32,-1.44
10.057,270.77,-496.73,124.96,579.37,-1.83,-1.32,-1.45
10.065,267.44,-492.98,123.87,574.37,-1.81,-1.32,-1.45
10.072,263.91,-488.83,122.66,568.9,-1.79,-1.31,-1.46
10.08,260.42,-483.6,121.87,562.61,-1.78,-1.29,-1.47
10.087,258.4,-478.66,121.8,557.42,-1.76,-1.29,-1.49
10.095,255.85,-474.71,121,552.67,-1.75,-1.29,-1.49
10.103,254.2,-472.43,121.03,549.96,-1.74,-1.31,-1.49
10.11,252.68,-469.06,121.15,546.39,-1.73,-1.33,-1.5
10.118,250.94,-464.75,120.44,541.72,-1.72,-1.33,-1.51
10.126,250.31,-460.27,120.71,537.66,-1.72,-1.34,-1.52
10.134,249.05,-455.69,121.06,533.23,-1.71,-1.34,-1.54
10.141,247.79,-451.63,120.87,529.13,-1.7,-1.35,-1.56
10.149,245.04,-446.4,118.61,522.86,-1.7,-1.33,-1.57
10.157,242.34,-442.05,116.66,517.44,-1.7,-1.33,-1.58
10.164,238.91,-437.01,113.58,510.83,-1.7,-1.31,-1.59
10.172,234.52,-432.26,109.58,503.84,-1.69,-1.3,-1.6
10.18,230.97,-428.45,107.15,498.39,-1.69,-1.29,-1.61
10.188,226.9,-424.49,104.66,492.57,-1.67,-1.29,-1.61
10.195,224.31,-419.89,103.24,487.12,-1.66,-1.28,-1.63
10.203,220.15,-414.85,101.08,480.39,-1.64,-1.27,-1.64
10.211,217.78,-410.41,100.27,475.31,-1.63,-1.26,-1.65
10.219,215.14,-406.2,99.58,470.32,-1.61,-1.24,-1.66
10.227,211.57,-401.25,97.64,464.01,-1.6,-1.22,-1.67
10.234,208.61,-397.31,96.08,458.92,-1.59,-1.21,-1.68
10.242,205.3,-392.2,92.95,452.34,-1.59,-1.19,-1.68
10.25,203.21,-389.12,92.12,448.55,-1.58,-1.19,-1.68
10.258,203.5,-388.83,94.39,448.9,-1.57,-1.22,-1.67
10.266,201.79,-385.89,94.29,445.56,-1.56,-1.22,-1.68
10.274,198.53,-381.79,92.05,440.06,-1.54,-1.21,-1.68
10.281,196.08,-378.46,91.41,435.93,-1.53,-1.2,-1.69
10.289,192.43,-375.61,89.52,431.42,-1.5,-1.21,-1.68
10.297,188.75,-371.79,86.86,425.91,-1.48,-1.2,-1.69
10.305,185.05,-367.63,84.79,420.21,-1.45,-1.18,-1.7
10.313,181.81,-363.54,83.05,414.87,-1.42,-1.17,-1.7
10.321,178.03,-359.55,81,409.31,-1.38,-1.15,-1.7
10.329,173.05,-354,77.19,401.53,-1.35,-1.11,-1.71
10.336,169.58,-349.29,74.9,395.44,-1.33,-1.08,-1.72
10.344,167.63,-346.2,74.45,391.79,-1.3,-1.07,-1.71
10.352,166.01,-342.97,74.89,388.32,-1.29,-1.07,-1.7
10.36,163.67,-338.87,74.19,383.57,-1.28,-1.06,-1.69
10.368,160.61,-334.81,72.83,378.42,-1.27,-1.05,-1.68
10.376,156.83,-330.01,70.49,372.12,-1.27,-1.03,-1.66
10.384,152.38,-324.77,67.52,365.04,-1.27,-1.01,-1.65
10.392,148.99,-320.48,65.61,359.46,-1.27,-1,-1.63
10.4,146.08,-316.08,63.74,353.98,-1.27,-0.99,-1.61
10.408,144.94,-313.26,64.09,351.07,-1.27,-1,-1.6
10.415,143.16,-310.46,64.27,347.86,-1.26,-1.01,-1.59
10.423,140.12,-306.29,61.67,342.42,-1.26,-1,-1.57
10.431,136.86,-302.41,59.2,337.18,-1.25,-0.98,-1.56
10.439,134.47,-298.49,58.05,332.49,-1.24,-0.97,-1.55
10.447,133.28,-295.77,58.54,329.65,-1.23,-0.96,-1.53
10.455,131.89,-292.07,58.73,325.81,-1.21,-0.95,-1.53
10.463,130.08,-288.82,59,322.21,-1.19,-0.93,-1.51
10.471,127.84,-285.92,58.89,318.69,-1.17,-0.92,-1.5
10.479,125.43,-282.26,57.76,314.23,-1.15,-0.91,-1.48
10.487,122.87,-278.13,56.05,309.19,-1.13,-0.89,-1.47
10.495,119.63,-273.38,53.74,303.21,-1.11,-0.87,-1.46
10.503,117.04,-269.24,52.01,298.15,-1.09,-0.85,-1.44
10.511,114.17,-265.62,50.15,293.44,-1.07,-0.84,-1.43
10.519,112.75,-263.22,50.36,290.75,-1.05,-0.83,-1.42
10.527,111.42,-260.3,50.08,287.54,-1.03,-0.82,-1.41
10.535,109.32,-258.07,49.36,284.58,-1.01,-0.82,-1.39
10.543,107.58,-255.2,48.21,281.11,-1,-0.81,-1.38
10.551,106.71,-253.04,48.18,278.82,-0.99,-0.8,-1.36
10.559,105.29,-251.14,47.82,276.48,-0.98,-0.79,-1.35
10.567,105.38,-249.48,48.75,275.17,-0.98,-0.79,-1.33
10.575,103.86,-247.13,47.76,272.28,-0.97,-0.79,-1.31
10.583,101.95,-244.48,46.39,268.92,-0.97,-0.78,-1.29
10.591,99.88,-241.85,44.96,265.5,-0.97,-0.77,-1.27
10.599,98.53,-239.26,44.73,262.59,-0.97,-0.77,-1.25
10.608,95.94,-235.17,42.34,257.49,-0.97,-0.75,-1.23
10.616,93.83,-231.49,40.92,253.12,-0.97,-0.74,-1.21
10.624,91.21,-227.05,39.04,247.78,-0.96,-0.72,-1.2
10.632,88.55,-222.31,37.23,242.18,-0.95,-0.7,-1.19
10.64,85.89,-218.19,35.02,237.08,-0.93,-0.69,-1.18
10.648,83.03,-213.63,32.49,231.49,-0.92,-0.67,-1.17
10.656,80.35,-209.52,30.11,226.41,-0.9,-0.65,-1.16
10.664,78.55,-205.86,29.05,222.24,-0.88,-0.64,-1.15
10.672,77.62,-203.44,29.24,219.69,-0.86,-0.64,-1.14
10.68,76.81,-201.36,29.43,217.52,-0.84,-0.63,-1.13
10.688,75.63,-198.97,28.89,214.81,-0.82,-0.62,-1.12
10.696,74.15,-195.52,28.15,210.99,-0.8,-0.6,-1.12
10.705,72.87,-193.54,27.48,208.63,-0.78,-0.58,-1.11
10.713,71.62,-190.99,27.57,205.83,-0.75,-0.56,-1.1
10.721,71.64,-190.34,29.06,205.44,-0.73,-0.56,-1.08
10.729,71.29,-189.86,29.85,204.99,-0.7,-0.56,-1.06
10.737,69.5,-188.11,28.31,202.53,-0.67,-0.55,-1.03
10.745,67.4,-185.24,25.94,198.82,-0.65,-0.52,-1.01
10.753,65.44,-183.74,24.54,196.59,-0.62,-0.51,-0.98
10.761,63.87,-181.25,23.07,193.56,-0.59,-0.5,-0.95
10.77,63.58,-179.31,22.71,191.6,-0.55,-0.49,-0.93
10.778,63.34,-177.09,22.17,189.38,-0.52,-0.48,-0.91
10.786,61.87,-173.19,19.85,184.98,-0.5,-0.45,-0.89
10.794,61.62,-171.52,19.83,183.33,-0.47,-0.44,-0.87
10.802,62.02,-171.3,21.31,183.42,-0.43,-0.45,-0.83
10.81,61.37,-169.5,21.66,181.56,-0.41,-0.44,-0.81
10.818,61.59,-167.85,22.72,180.23,-0.38,-0.44,-0.78
10.827,62.33,-165.86,24.23,178.84,-0.36,-0.42,-0.76
10.835,61.98,-162.52,23.51,175.52,-0.34,-0.4,-0.74
10.843,61.13,-158.85,21.91,171.61,-0.33,-0.36,-0.73
10.851,60.58,-154.51,19.82,167.15,-0.31,-0.33,-0.71
10.859,59.6,-150.47,17.69,162.81,-0.3,-0.29,-0.7
10.867,58.44,-147.2,16,159.19,-0.27,-0.26,-0.67
10.875,56.22,-143.13,13.45,154.36,-0.23,-0.22,-0.65
10.884,56.32,-140.74,13.58,152.2,-0.19,-0.21,-0.61
10.892,56.47,-138.38,13,150.02,-0.14,-0.19,-0.56
10.9,58.73,-136.35,14.17,149.13,-0.08,-0.17,-0.49
10.908,59.79,-134.38,15.32,147.88,-0.02,-0.14,-0.41
10.916,58.79,-131.26,15.36,144.64,0.03,-0.11,-0.35
10.925,57.45,-127.15,14.26,140.25,0.06,-0.08,-0.32
10.933,55.21,-123.4,13.41,135.85,0.09,-0.06,-0.3
10.941,53.6,-120.07,12.96,132.12,0.1,-0.05,-0.28
10.949,51.95,-116.88,12.25,128.49,0.11,-0.05,-0.28
10.957,50.54,-114.02,12.42,125.33,0.11,-0.04,-0.27
10.965,48.67,-111.98,12.65,122.76,0.11,-0.05,-0.26
10.974,45.4,-108.23,11.22,117.9,0.11,-0.03,-0.26
10.982,43.78,-104.99,10.56,114.24,0.1,-0.02,-0.26
10.99,42.76,-101.74,9.97,110.81,0.1,-0.02,-0.25
10.998,42.2,-100.36,9.96,109.33,0.1,-0.04,-0.24
11.007,42.34,-100.2,10.65,109.3,0.11,-0.07,-0.23
11.015,41.27,-99.01,10.54,107.79,0.11,-0.09,-0.23
11.023,41.18,-98.69,11.98,107.6,0.12,-0.11,-0.23
11.031,40.79,-97.41,12.32,106.32,0.13,-0.13,-0.24
11.04,40.37,-95.27,12.51,104.23,0.13,-0.13,-0.25
11.048,39.52,-93.68,11.65,102.34,0.14,-0.12,-0.25
11.056,38.83,-92.12,11,100.57,0.14,-0.12,-0.25
11.064,38.72,-91.21,11.44,99.75,0.14,-0.13,-0.25
11.073,38,-90.15,10.73,98.42,0.13,-0.12,-0.25
11.081,38,-89.05,11.07,97.45,0.13,-0.11,-0.25
11.089,37.77,-88.86,12.05,97.3,0.13,-0.12,-0.24
11.097,37.66,-88.66,12.71,97.16,0.13,-0.12,-0.23
11.106,37.77,-88.25,12.79,96.85,0.12,-0.12,-0.23
11.114,37.26,-87.96,12.12,96.29,0.12,-0.12,-0.22
11.122,38.22,-87.89,13.65,96.81,0.12,-0.13,-0.23
11.13,37.45,-87.48,13.49,96.11,0.12,-0.13,-0.22
11.139,36.38,-86.3,11.72,94.39,0.12,-0.12,-0.22
11.147,35.09,-84.53,9.38,92,0.12,-0.11,-0.22
11.155,33.99,-83.63,7.83,90.62,0.12,-0.1,-0.22
11.164,34.86,-83.01,8.31,90.41,0.13,-0.1,-0.22
11.172,34.96,-83.66,8.42,91.06,0.14,-0.11,-0.2
11.18,35.76,-82.74,8.92,90.58,0.14,-0.09,-0.21
11.188,35.88,-82.5,9.13,90.43,0.15,-0.09,-0.2
11.197,35.53,-83.44,9.54,91.2,0.15,-0.09,-0.19
11.205,34.93,-83.71,9.18,91.17,0.16,-0.09,-0.17
11.213,34.3,-85,8.47,92.05,0.17,-0.11,-0.15
11.221,34.43,-85.67,8.66,92.74,0.17,-0.11,-0.14
11.23,33.74,-85.55,8.19,92.33,0.17,-0.11,-0.14
11.238,32.71,-85.68,7.3,92,0.18,-0.11,-0.13
11.246,31.42,-86.81,6.68,92.56,0.18,-0.12,-0.11
11.254,31.27,-87.34,6.82,93.02,0.18,-0.12,-0.1
11.263,30.78,-87.85,6.99,93.35,0.18,-0.12,-0.1
11.271,30.86,-87.61,7.34,93.18,0.18,-0.12,-0.1
11.279,31.26,-88.29,7.88,93.99,0.18,-0.12,-0.1
11.287,30.36,-88.41,7.62,93.79,0.18,-0.12,-0.1
11.296,29.89,-88.62,7.81,93.85,0.18,-0.11,-0.1
11.304,29.85,-88.14,7.85,93.39,0.17,-0.11,-0.1
11.312,29.69,-88.72,8,93.9,0.18,-0.11,-0.1
11.32,29.66,-88.49,8.29,93.7,0.17,-0.1,-0.11
11.329,29.7,-88.72,7.92,93.89,0.17,-0.09,-0.12
11.337,30.32,-88.88,7.74,94.23,0.17,-0.09,-0.12
11.345,30.83,-89.71,8.45,95.24,0.17,-0.09,-0.13
11.353,30.83,-90.84,8.77,96.33,0.17,-0.09,-0.13
11.362,31.17,-91.55,8.19,97.06,0.17,-0.09,-0.13
11.37,31.86,-91.79,7.09,97.42,0.17,-0.08,-0.13
11.378,32.38,-91.88,6.56,97.64,0.17,-0.08,-0.13
11.386,32.83,-92.19,6.56,98.08,0.17,-0.08,-0.13
11.395,32.34,-92.34,6.04,98.02,0.17,-0.07,-0.14
11.403,32.09,-92.81,6.18,98.4,0.17,-0.07,-0.15
11.411,32.08,-93.53,6.88,99.12,0.17,-0.08,-0.15
11.419,32.71,-94.83,8.78,100.7,0.17,-0.09,-0.16
11.428,33.2,-95.76,9.69,101.81,0.17,-0.09,-0.16
11.436,34.06,-96.59,10.45,102.95,0.16,-0.09,-0.17
11.444,34.92,-96.51,11.5,103.28,0.14,-0.09,-0.19
11.452,35.14,-96.24,11.29,103.08,0.13,-0.08,-0.2
11.461,35.52,-96.77,11.35,103.71,0.11,-0.08,-0.21
11.469,35.81,-97.86,11.41,104.83,0.1,-0.09,-0.21
11.477,35.88,-99.75,11.13,106.59,0.08,-0.11,-0.21
11.485,36.9,-102.12,12.49,109.3,0.07,-0.14,-0.21
11.494,37.15,-102.04,11.85,109.24,0.05,-0.13,-0.21
11.502,37.49,-103.22,12.28,110.5,0.04,-0.14,-0.21
11.51,37.4,-104.42,12.11,111.58,0.03,-0.14,-0.21
11.518,37.86,-104.83,11.58,112.06,0.02,-0.14,-0.22
11.526,38.76,-104.58,10.93,112.07,0,-0.14,-0.23
11.535,39.26,-105.29,10.79,112.89,0,-0.14,-0.24
11.543,38.49,-105.39,9.21,112.58,0,-0.14,-0.25
11.551,36.95,-104.91,7.17,111.46,0,-0.12,-0.28
11.559,35.4,-104.25,4.77,110.2,0,-0.11,-0.31
11.568,35.67,-104.88,5.16,110.9,0,-0.11,-0.34
11.576,37.44,-107.12,7.32,113.71,0,-0.13,-0.36
11.584,38.2,-109,8.62,115.82,0.01,-0.14,-0.38
11.592,39.18,-109.99,9.53,117.15,0.01,-0.15,-0.41
11.6,38.54,-109.53,8.34,116.41,0.01,-0.14,-0.44
11.609,37.22,-108.47,6.26,114.85,0.02,-0.13,-0.46
11.617,37.51,-109.05,6.05,115.48,0.02,-0.13,-0.48
11.625,40.06,-111.68,8.7,118.96,0.04,-0.15,-0.49
11.633,42.22,-114.32,10.85,122.35,0.05,-0.17,-0.5
11.642,42.36,-115.92,11.08,123.91,0.07,-0.17,-0.51
11.65,41.36,-115.95,9.91,123.51,0.08,-0.15,-0.54
11.658,41.76,-117.16,9.74,124.77,0.1,-0.15,-0.55
11.666,42.72,-118.3,10.77,126.24,0.11,-0.15,-0.56
11.674,44.17,-119.39,12,127.87,0.12,-0.15,-0.58
11.683,46.8,-121.57,13.52,130.96,0.13,-0.16,-0.59
11.691,47.88,-122.7,13.98,132.45,0.15,-0.17,-0.59
11.699,47.66,-123.21,13.95,132.84,0.15,-0.17,-0.6
11.707,47.03,-122.75,14.2,132.21,0.16,-0.16,-0.6
11.715,46.83,-122.55,13.78,131.91,0.16,-0.15,-0.61
11.724,47.03,-122.6,13.31,131.99,0.16,-0.15,-0.61
11.732,47.56,-123.02,13.08,132.54,0.16,-0.15,-0.61
11.74,48.14,-123.03,13.96,132.84,0.17,-0.15,-0.6
11.748,48.56,-121.86,14.75,132,0.17,-0.13,-0.61
11.756,48.34,-121.05,14.06,131.1,0.17,-0.12,-0.6
11.765,48.38,-121.3,13.92,131.33,0.17,-0.12,-0.59
11.773,48.61,-122.29,14.99,132.45,0.18,-0.13,-0.58
11.781,48.1,-122.64,15.13,132.6,0.19,-0.13,-0.57
11.789,47.23,-121.72,14.11,131.32,0.2,-0.12,-0.56
11.797,46.61,-120.56,12.34,129.85,0.21,-0.1,-0.56
11.806,47.14,-120.64,12.06,130.09,0.22,-0.1,-0.55
11.814,47.8,-120.58,11.25,130.2,0.22,-0.1,-0.54
11.822,47.46,-119.13,10.08,128.63,0.23,-0.08,-0.54
11.83,47.13,-118.18,9.11,127.56,0.24,-0.07,-0.53
11.838,47.52,-118.31,9.69,127.87,0.25,-0.07,-0.52
11.847,48.75,-120.5,12.4,130.57,0.27,-0.09,-0.5
11.855,48.9,-120.44,12.46,130.59,0.28,-0.08,-0.49
11.863,49.05,-121.51,13.02,131.69,0.29,-0.09,-0.47
11.871,49.35,-121.63,13.2,131.92,0.3,-0.1,-0.46
11.879,48.63,-119.65,12.05,129.71,0.3,-0.07,-0.45
11.888,47.54,-117.9,10.28,127.54,0.3,-0.05,-0.45
11.896,47.29,-116.76,9.38,126.32,0.3,-0.03,-0.45
11.904,47.83,-117.08,9.88,126.86,0.31,-0.03,-0.44
11.912,48.26,-117.95,11.17,127.93,0.32,-0.04,-0.44
11.92,48.61,-117.19,11.47,127.39,0.32,-0.03,-0.44
11.929,48.58,-117.25,11.74,127.46,0.33,-0.03,-0.43
11.937,49.02,-117.68,12.61,128.1,0.33,-0.03,-0.43
11.945,49.52,-117.83,13.27,128.5,0.33,-0.03,-0.42
11.953,48.7,-117.46,12.28,127.74,0.33,-0.03,-0.41
11.961,48.4,-117.46,12.11,127.61,0.33,-0.03,-0.4
11.969,48.08,-117.5,11.72,127.5,0.33,-0.03,-0.39
11.978,48.14,-116.67,11.75,126.76,0.33,-0.03,-0.38
11.986,48.05,-116.41,11.6,126.47,0.33,-0.03,-0.37
11.994,48.1,-115.92,11.18,126,0.33,-0.03,-0.36
12.002,48.68,-116.29,11.59,126.6,0.33,-0.04,-0.35
12.01,49.17,-117.28,12.15,127.75,0.33,-0.05,-0.34
12.019,49.73,-117.47,12.81,128.2,0.33,-0.05,-0.33
12.027,49.63,-116.81,12.64,127.54,0.33,-0.04,-0.32
12.035,49.46,-115.4,12.05,126.13,0.32,-0.02,-0.32
12.043,49.35,-114.91,12.1,125.64,0.32,-0.01,-0.31
12.052,50.49,-115.87,13.2,127.08,0.32,-0.01,-0.3
12.06,50.31,-116.14,12.74,127.21,0.31,-0.01,-0.28
12.068,50.64,-117.49,13.36,128.64,0.31,-0.02,-0.26
12.076,51.6,-119.71,14.65,131.17,0.32,-0.04,-0.23
12.084,52.34,-120.58,15.42,132.35,0.31,-0.04,-0.22
12.092,52.86,-121.03,15.69,133,0.31,-0.05,-0.21
12.101,52.7,-120.72,15.49,132.63,0.31,-0.04,-0.2
12.109,51.48,-120.08,14.25,131.42,0.31,-0.04,-0.19
12.117,49.59,-117.83,11.59,128.36,0.31,-0.01,-0.19
12.125,48.54,-116.68,10.38,126.8,0.31,0,-0.19
12.133,48.37,-116.63,10.36,126.69,0.31,0,-0.18
12.142,46.81,-114.87,8.68,124.35,0.32,0.01,-0.17
12.15,45.94,-114.17,8.13,123.33,0.32,0.02,-0.17
12.158,45.87,-113.88,8.37,123.06,0.32,0.02,-0.17
12.166,45.73,-113.55,8.63,122.71,0.32,0.02,-0.17
12.174,45.04,-112.25,7.79,121.2,0.32,0.04,-0.17
12.183,44.86,-112.62,7.53,121.46,0.33,0.03,-0.17
12.191,46.05,-114.1,8.91,123.37,0.33,0.02,-0.17
12.199,47.65,-116.2,10.54,126.03,0.33,-0.01,-0.15
12.207,47.84,-116.33,10.88,126.25,0.34,-0.01,-0.15
12.215,47.6,-116.76,10.34,126.51,0.34,-0.01,-0.14
12.224,48.44,-117.8,11.21,127.86,0.34,-0.02,-0.13
12.232,49.39,-118.9,12.44,129.35,0.33,-0.03,-0.11
12.24,49.76,-119.73,12.83,130.29,0.33,-0.04,-0.1
12.248,50.15,-120.3,13.09,130.99,0.33,-0.04,-0.09
12.256,50.29,-120.13,13.13,130.89,0.32,-0.04,-0.08
12.265,49.34,-118.99,12.14,129.38,0.32,-0.03,-0.08
12.273,49.28,-119.16,12.04,129.51,0.31,-0.04,-0.07
12.281,49.18,-118.49,12,128.85,0.31,-0.04,-0.07
12.289,49.58,-118.29,12.43,128.86,0.3,-0.04,-0.07
12.297,49.97,-118.04,12.59,128.8,0.29,-0.04,-0.07
12.306,50.38,-117.38,12.89,128.38,0.28,-0.04,-0.06
12.314,49.42,-115.61,11.53,126.26,0.27,-0.02,-0.06
12.322,49.41,-114.87,11.72,125.59,0.26,-0.02,-0.06
12.33,48.67,-113.63,10.96,124.1,0.26,-0.02,-0.06
12.338,47.76,-112.52,10.35,122.68,0.25,-0.01,-0.05
12.347,48.07,-111.57,10.98,121.98,0.25,-0.01,-0.05
12.355,47.97,-111,11.47,121.46,0.25,-0.01,-0.04
12.363,47.68,-110.55,11.48,120.94,0.25,-0.01,-0.04
12.371,48.24,-110.85,12.93,121.58,0.25,-0.02,-0.03
12.379,48,-111.59,13.63,122.24,0.26,-0.03,-0.02
12.388,47.5,-112.61,14.07,123.03,0.26,-0.04,-0.01
12.396,47.4,-111.29,13.72,121.74,0.26,-0.03,-0.01
12.404,45.95,-110.05,11.32,119.79,0.26,-0.02,0
12.412,45.01,-108.25,9.29,117.6,0.27,0,0.01
12.42,44.58,-107.7,8.81,116.89,0.27,0,0.02
12.429,44.37,-107.93,8.75,117.03,0.28,0,0.03
12.437,45.27,-108.6,9.35,118.03,0.29,0,0.04
12.445,46.26,-109.66,10.76,119.51,0.29,-0.01,0.06
12.453,48.27,-110.44,12.75,121.2,0.3,-0.02,0.06
12.462,49.13,-111.33,13.7,122.45,0.3,-0.03,0.07
12.47,50,-110.84,14.86,122.49,0.3,-0.02,0.07
12.478,50.27,-111.89,15.39,123.62,0.3,-0.03,0.09
12.486,51.32,-112.87,16.5,125.08,0.3,-0.04,0.1
12.494,51.2,-112.79,16.28,124.93,0.31,-0.04,0.1
12.503,50.66,-111.1,15.64,123.1,0.31,-0.02,0.1
12.511,50.82,-110.52,15.55,122.63,0.31,-0.01,0.1
12.519,49.16,-108.73,13.37,120.07,0.32,0.01,0.1
12.527,48.58,-108.85,12.67,119.87,0.33,0.01,0.11
12.535,48.68,-109.3,12.76,120.33,0.34,0,0.12
12.544,48.76,-109.15,13.08,120.26,0.35,0.01,0.12
12.552,50.03,-109.49,14.34,121.23,0.35,0.01,0.12
12.56,49.95,-108.63,14.07,120.39,0.36,0.02,0.13
12.568,51.22,-109.51,15.08,121.83,0.36,0.01,0.14
12.576,50.98,-108.53,15.06,120.85,0.37,0.03,0.14
12.585,52.91,-109.19,17.14,122.54,0.37,0.02,0.14
12.593,53.35,-108.59,17.57,122.25,0.37,0.03,0.13
12.601,52.55,-107.1,16.48,120.43,0.37,0.05,0.13
12.609,51.04,-105.02,14.96,117.72,0.37,0.08,0.13
12.617,49.95,-103.1,13.91,115.4,0.36,0.1,0.13
12.626,51.03,-103.41,15.19,116.31,0.36,0.09,0.13
12.634,50.38,-102.35,14.61,115.01,0.36,0.11,0.13
12.642,50.61,-102.29,15.12,115.12,0.36,0.11,0.13
12.65,50.42,-102.06,14.92,114.8,0.35,0.11,0.14
12.659,50.37,-102.14,14.63,114.82,0.35,0.11,0.15
12.667,49.82,-102.11,14.18,114.5,0.36,0.11,0.15
12.675,49.28,-101.87,13.76,114,0.36,0.11,0.15
12.683,49.46,-103.21,14.16,115.32,0.36,0.09,0.16
12.691,48.77,-103.04,13.54,114.8,0.36,0.09,0.16
12.7,47.27,-101.99,11.92,113.04,0.36,0.1,0.15
12.708,46.64,-101.13,11.34,111.94,0.36,0.1,0.15
12.716,46.88,-101.6,11.35,112.47,0.36,0.09,0.15
12.724,46.91,-101.55,11.69,112.47,0.36,0.09,0.14
12.732,47.67,-102.9,12.69,114.12,0.36,0.07,0.13
12.741,49.22,-104.6,13.99,116.45,0.36,0.05,0.13
12.749,49.48,-105.08,14.01,116.99,0.36,0.05,0.13
12.757,48.34,-104.04,12.85,115.44,0.35,0.06,0.12
12.765,49.07,-105.12,13.79,116.83,0.35,0.05,0.11
12.773,48.71,-105.32,13.52,116.82,0.35,0.06,0.11
12.782,50.05,-107.26,14.8,119.28,0.35,0.04,0.11
12.79,49.51,-107.67,14.48,119.38,0.36,0.04,0.1
12.798,50.51,-109.42,15.66,121.53,0.36,0.02,0.09
12.806,49.68,-109.43,14.68,121.07,0.36,0.02,0.08
12.814,50.08,-109.81,14.95,121.61,0.37,0.02,0.06
12.823,49.55,-108.68,14.39,120.3,0.37,0.04,0.04
12.831,49.56,-108.64,14.08,120.24,0.37,0.04,0.03
12.839,51.4,-109.78,16.58,122.34,0.37,0.03,0.01
12.847,51.43,-108.94,17.27,121.7,0.38,0.04,0
12.855,50.47,-107.5,16.77,119.93,0.37,0.05,-0.02
12.864,48.92,-105.35,15.17,117.14,0.37,0.08,-0.03
12.872,47.61,-104,13.58,115.18,0.38,0.1,-0.04
12.88,46.24,-103.3,11.81,113.79,0.38,0.11,-0.05
12.888,45.85,-103.03,11.51,113.36,0.39,0.11,-0.06
12.897,44.55,-102.95,9.86,112.6,0.39,0.12,-0.05
12.905,43.45,-102.93,8.69,112.06,0.4,0.12,-0.05
12.913,43.97,-103.39,9.38,112.74,0.4,0.11,-0.05
12.921,44.9,-104.7,10.84,114.44,0.41,0.1,-0.04
12.929,44.99,-105.7,11.26,115.42,0.41,0.08,-0.03
12.938,45.89,-106.19,12.55,116.36,0.41,0.08,-0.03
12.946,46.24,-105.88,13.04,116.26,0.41,0.08,-0.03
12.954,45.66,-105.07,11.95,115.18,0.41,0.09,-0.03
12.962,46.28,-105.03,12.46,115.44,0.4,0.08,-0.03
12.97,46.05,-104.74,11.77,115.02,0.41,0.08,-0.02
12.979,45.81,-103.84,11.33,114.06,0.41,0.09,-0.03
12.987,46.28,-103.76,11.39,114.18,0.4,0.09,-0.02
12.995,45.68,-103.46,10.56,113.58,0.41,0.09,-0.02
13.003,44.41,-103.01,9.03,112.53,0.41,0.1,-0.01
13.011,44.6,-102.37,9.05,112.03,0.41,0.11,-0.01
13.02,44.22,-102.06,8.56,111.55,0.42,0.11,0
13.028,45.26,-102.4,10.09,112.41,0.42,0.1,-0.01
13.036,45.71,-102.92,10.08,113.07,0.42,0.09,0
13.044,45.65,-103.1,9.98,113.2,0.42,0.09,0
13.052,46.02,-103.54,10.44,113.78,0.42,0.09,-0.01
13.061,46.63,-104.34,11.54,114.87,0.42,0.08,-0.01
13.069,46.25,-104.36,11.09,114.69,0.42,0.08,-0.01
13.077,46.43,-104.13,11.11,114.55,0.42,0.07,-0.02
13.085,47.13,-104.56,12.67,115.39,0.42,0.07,-0.03
13.094,46.58,-104.37,13.16,115.04,0.43,0.07,-0.04
13.102,46.78,-104.84,13.66,115.61,0.43,0.07,-0.05
13.11,47.45,-105.49,14.2,116.54,0.43,0.06,-0.05
13.118,49.43,-107.08,16.1,119.03,0.44,0.04,-0.05
13.126,49.47,-107.73,15.93,119.61,0.44,0.04,-0.05
13.135,50.88,-109.9,17.71,122.4,0.46,0.01,-0.05
13.143,51.05,-110.54,18.23,123.12,0.46,0.01,-0.05
13.151,52.49,-112.54,19.65,125.73,0.47,-0.02,-0.04
13.159,52.56,-113.07,19.57,126.22,0.48,-0.02,-0.04
13.167,52.47,-112.84,19.15,125.91,0.48,-0.01,-0.05
13.176,51.37,-110.86,17.49,123.43,0.47,0.01,-0.07
13.184,50.06,-108.99,15.41,120.92,0.46,0.03,-0.08
13.192,50.25,-109.02,15.15,121,0.46,0.02,-0.09
13.2,48.62,-106.94,13.36,118.23,0.45,0.05,-0.11
13.209,48.36,-107.23,13.23,118.37,0.45,0.04,-0.12
13.217,49,-107.53,14.18,119.02,0.45,0.03,-0.12
13.225,49.41,-107.28,14.89,119.04,0.45,0.03,-0.13
13.233,48.75,-106.76,14.55,118.26,0.45,0.03,-0.15
13.241,49.04,-107.91,14.89,119.46,0.45,0,-0.15
13.25,47.73,-107.85,13.38,118.7,0.45,0,-0.16
13.258,47.16,-107.6,13.43,118.25,0.45,0,-0.18
13.266,47.62,-108.03,15.39,119.06,0.45,-0.01,-0.19
13.274,46.51,-108.22,14.76,118.71,0.45,-0.02,-0.2
13.282,47.02,-108.46,16.05,119.3,0.45,-0.02,-0.22
13.291,46.43,-107.66,15.81,118.31,0.44,-0.01,-0.24
13.299,46.53,-108.55,15.67,119.14,0.44,-0.02,-0.25
13.307,47.26,-109.6,16.81,120.53,0.43,-0.02,-0.26
13.315,46.25,-110.87,15.71,121.16,0.43,-0.02,-0.26
13.324,46.46,-113.01,15.73,123.2,0.42,-0.03,-0.26
13.332,47.82,-115.96,17.28,126.62,0.42,-0.04,-0.25
13.34,47.33,-118.39,16.2,128.52,0.41,-0.04,-0.24
13.348,48.14,-121.61,16.2,131.79,0.4,-0.05,-0.23
13.356,49.83,-125.48,16.19,135.99,0.39,-0.05,-0.22
13.364,51.71,-130.3,15.62,141.05,0.39,-0.05,-0.21
13.373,53.43,-135.7,15.12,146.62,0.38,-0.03,-0.2
13.381,54.1,-141.9,13.88,152.5,0.37,-0.01,-0.17
13.389,57.05,-151.26,14.64,162.32,0.38,0,-0.14
13.397,61.1,-162.64,16.36,174.51,0.39,0.01,-0.09
13.405,65.34,-175.29,17.69,187.91,0.42,0.04,-0.02
13.413,69.93,-189.7,18.58,203.03,0.47,0.08,0.05
13.421,76.26,-207.6,20.64,222.13,0.53,0.12,0.14
13.429,82.43,-226.56,22.36,242.12,0.62,0.18,0.24
13.437,88.85,-247.27,23.67,263.81,0.73,0.26,0.35
13.445,95.32,-269.86,25.7,287.35,0.86,0.35,0.45
13.453,103.69,-296.06,31.78,315.3,0.99,0.41,0.55
13.461,113.23,-322.77,38.12,344.18,1.1,0.47,0.63
13.469,122.92,-350.02,44.21,373.6,1.21,0.54,0.71
13.476,132.98,-377.65,49.89,403.48,1.3,0.6,0.8
13.484,143.25,-406.96,55.72,435.02,1.4,0.64,0.89
13.491,152.83,-435.23,60.83,465.27,1.49,0.69,0.98
13.499,163.61,-462.88,66.37,495.41,1.58,0.74,1.07
13.506,174.96,-489.12,72.49,524.5,1.66,0.79,1.15
13.514,184.96,-513.58,77.38,551.33,1.75,0.84,1.23
13.521,194.93,-536.44,81.57,576.56,1.83,0.9,1.32
13.528,205.23,-559.44,86.97,602.21,1.92,0.94,1.41
13.535,216.59,-579.71,93.15,625.83,1.99,1,1.48
13.542,226.22,-597.86,97.95,646.69,2.06,1.06,1.56
13.55,235.7,-615.57,102.71,667.11,2.12,1.11,1.65
13.557,245.87,-631.73,107.72,686.39,2.18,1.15,1.73
13.564,257.12,-646.61,113.01,704.97,2.22,1.19,1.82
13.571,269.61,-660.91,118.97,723.63,2.26,1.22,1.91
13.578,280.37,-673.42,123.78,739.88,2.3,1.26,2
13.585,289.76,-684.22,128.13,754.01,2.33,1.31,2.09
13.592,298.97,-693.86,131.54,766.89,2.36,1.35,2.18
13.599,307.67,-701.41,133.76,777.51,2.39,1.4,2.26
13.605,316.81,-709.05,136.71,788.55,2.41,1.43,2.34
13.612,326.44,-716.52,140.16,799.76,2.44,1.45,2.41
13.619,336.23,-722,143.38,809.25,2.47,1.49,2.48
13.626,344.17,-725.89,144.81,816.29,2.48,1.53,2.55
13.633,353.19,-730.26,148.95,824.74,2.5,1.54,2.62
13.64,361.01,-732.21,151.53,830.32,2.5,1.57,2.68
13.647,368.76,-734.17,154.57,835.99,2.51,1.58,2.75
13.654,375.03,-733.87,155.86,838.75,2.51,1.6,2.81
13.66,380.56,-731.46,155.9,839.15,2.51,1.64,2.86
13.667,386.65,-728.9,156.63,839.84,2.52,1.67,2.9
13.674,390.88,-724.88,155.91,838.18,2.53,1.72,2.93
13.681,396.23,-722.24,158.77,838.95,2.56,1.75,2.96
13.688,400.84,-718.63,162.02,838.66,2.58,1.78,2.97
13.695,403.93,-713.79,164.94,836.58,2.6,1.81,2.99
13.701,404.6,-708.36,167.24,832.73,2.61,1.83,3
13.708,403.1,-700.39,167.86,825.36,2.61,1.87,3
13.715,400.58,-692.75,168.76,817.83,2.6,1.89,3.01
13.722,397.33,-684.39,169.96,809.41,2.6,1.91,3
13.729,394.15,-677.5,172.42,802.55,2.6,1.92,3
13.736,389.56,-670.34,174.45,794.7,2.61,1.94,2.99
13.743,384.62,-664.92,176.52,788.17,2.62,1.94,3
13.75,379.55,-659.35,178.86,781.53,2.63,1.95,3
13.757,374.13,-653.32,181.21,774.36,2.63,1.97,3
13.764,369.02,-646.7,183.28,766.8,2.64,2,2.99
13.771,362.5,-641.04,184.47,759.19,2.64,2.02,2.99
13.778,356.92,-636.18,187.82,753.26,2.64,2.03,2.99
13.784,351.82,-631.16,191.29,747.48,2.63,2.02,3
13.791,346.5,-626.49,195.41,742.12,2.61,2,3.02
13.799,339.49,-620.71,197.85,734.63,2.57,1.98,3.04
13.805,332,-613.74,198.88,725.57,2.53,1.96,3.06
13.813,325.42,-606.67,200.39,717.01,2.48,1.94,3.08
13.82,319.37,-600.21,202.61,709.44,2.43,1.91,3.1
13.827,310.74,-593.31,202.68,699.75,2.36,1.89,3.13
13.834,301.8,-587.05,202.88,690.56,2.27,1.84,3.17
13.841,291.55,-578.55,201.88,678.58,2.15,1.78,3.2
13.848,281.6,-568.83,201.1,665.82,2.01,1.72,3.22
13.855,271.41,-558.09,199.68,651.92,1.86,1.64,3.21
13.862,260.37,-545.41,197.16,635.72,1.69,1.55,3.19
13.87,248.56,-530.13,192.8,616.43,1.52,1.47,3.14
13.877,237.4,-513.91,187.81,596.43,1.35,1.39,3.08
13.884,226.11,-496.7,181.45,575.12,1.18,1.32,3.01
13.892,215.69,-480.23,174.78,554.7,1.03,1.24,2.93
13.899,205.23,-463.29,167.5,533.67,0.89,1.16,2.84
13.906,194.97,-446.31,159.13,512.38,0.75,1.1,2.75
13.914,186.32,-430.83,152.88,493.66,0.63,1.02,2.65
13.921,177.59,-414.63,146.6,474.28,0.52,0.95,2.54
13.929,169.97,-399.58,141.37,456.67,0.42,0.89,2.42
13.937,161.95,-384.85,134.92,438.79,0.33,0.83,2.3
13.944,153.18,-369.85,127.39,420.1,0.25,0.78,2.16
13.952,145.56,-356.26,120.91,403.39,0.18,0.73,2
13.96,138.56,-344.15,114.98,388.41,0.12,0.68,1.83
13.967,133.77,-333.56,110.51,375.99,0.08,0.62,1.65
13.975,130.84,-324.02,106.68,365.36,0.05,0.58,1.45
13.983,128.07,-314.43,102.55,354.66,0.03,0.55,1.24
13.991,127.47,-308.04,100.35,348.15,0.02,0.51,1.05
13.998,127.78,-302.56,99.02,343.04,0.02,0.48,0.86
14.006,128.76,-298.04,98.1,339.16,0.02,0.44,0.69
14.014,130.2,-293.77,97.36,335.76,0.02,0.41,0.52
14.022,132.06,-290.66,97.33,333.76,0.02,0.37,0.36
14.03,135.97,-289.74,99.43,335.15,0.02,0.31,0.22
14.038,140.57,-289,101.98,337.16,0.01,0.26,0.1
14.045,146.06,-289.72,104.92,341,-0.01,0.19,-0.02
14.053,150.29,-289.98,105.53,343.24,-0.03,0.16,-0.12
14.061,155.39,-290.79,105.62,346.21,-0.06,0.12,-0.22
14.069,159.92,-293.45,105.13,350.35,-0.08,0.09,-0.3
14.077,166.62,-298.31,106.32,357.85,-0.1,0.06,-0.38
14.085,173.11,-303.78,106.99,365.64,-0.13,0.03,-0.45
14.093,179.6,-310.22,107.72,374.29,-0.16,0.01,-0.51
14.1,186.59,-318.05,110.22,384.86,-0.19,-0.02,-0.57
14.108,192.87,-325.12,112.24,394.34,-0.23,-0.04,-0.62
14.116,198.78,-334.01,115.03,405.35,-0.27,-0.08,-0.65
14.124,202.93,-341.84,116.41,414.23,-0.3,-0.1,-0.67
14.131,208.22,-350.98,119.89,425.34,-0.34,-0.14,-0.7
14.139,211.23,-358.13,121.08,433.06,-0.36,-0.15,-0.73
14.147,214.07,-364.52,121.2,439.76,-0.38,-0.16,-0.77
14.155,217.71,-370.06,121.65,446.25,-0.39,-0.15,-0.83
14.162,223.09,-376.9,123.12,454.95,-0.39,-0.16,-0.88
14.17,230.08,-383.91,126.15,465.01,-0.39,-0.17,-0.95
14.178,237.27,-392.21,129.57,476.35,-0.39,-0.2,-1.01
14.185,244.12,-400.77,132.92,487.72,-0.39,-0.23,-1.06
14.193,249.91,-408.25,136.1,497.64,-0.41,-0.27,-1.1
14.201,255.32,-414.53,139.27,506.38,-0.43,-0.31,-1.13
14.208,259.78,-419.29,143.38,513.66,-0.46,-0.36,-1.17
14.216,262.33,-423.46,145.96,519.07,-0.5,-0.41,-1.19
14.224,263.14,-425.98,146.56,521.71,-0.54,-0.46,-1.2
14.231,264.67,-428.78,148.08,525.2,-0.58,-0.52,-1.2
14.239,264.88,-430.35,148.3,526.65,-0.62,-0.56,-1.2
14.247,264.73,-430.51,147.47,526.47,-0.67,-0.58,-1.2
14.254,265.76,-432.77,148.66,529.17,-0.7,-0.62,-1.2
14.262,266.96,-434.81,149.25,531.61,-0.75,-0.66,-1.19
14.27,267.04,-435.18,148.58,531.76,-0.79,-0.68,-1.19
14.277,267.23,-436.37,148.03,532.67,-0.84,-0.72,-1.18
14.285,267.24,-436.43,148.31,532.81,-0.89,-0.75,-1.19
14.293,265.83,-435.53,146.01,530.73,-0.94,-0.79,-1.19
14.3,264.25,-434.27,144.03,528.36,-0.98,-0.82,-1.19
14.308,261.63,-431.99,141.46,524.48,-1.02,-0.84,-1.19
14.316,258.9,-428.97,139.37,520.07,-1.07,-0.85,-1.19
14.324,256.04,-426.12,137.28,515.73,-1.1,-0.87,-1.18
14.331,253.7,-423.27,136.08,511.9,-1.14,-0.9,-1.15
14.339,250.64,-421.39,134.37,508.37,-1.17,-0.93,-1.11
14.347,246.39,-418.63,130.52,502.98,-1.19,-0.94,-1.08
14.355,241.48,-415.94,126.2,497.24,-1.21,-0.95,-1.05
14.362,237.28,-414.92,122.34,493.38,-1.22,-0.96,-1.04
14.37,233.42,-413.28,120.2,489.62,-1.24,-0.95,-1.05
14.378,229.24,-410.54,117.99,484.78,-1.26,-0.95,-1.06
14.386,223.42,-406.53,115.11,477.95,-1.28,-0.95,-1.07
14.393,217.64,-402.62,113.19,471.47,-1.3,-0.96,-1.07
14.401,210.59,-397.23,110.69,463.02,-1.32,-0.96,-1.06
14.409,202.13,-389.41,106.44,451.47,-1.34,-0.94,-1.05
14.417,192.44,-380.07,101.62,437.96,-1.37,-0.91,-1.02
14.425,183.53,-371.93,98.22,426.22,-1.39,-0.9,-0.98
14.432,175.62,-364.42,95.97,415.75,-1.4,-0.9,-0.93
14.44,166.28,-355.71,92.36,403.38,-1.42,-0.89,-0.89
14.448,157.1,-347,88.18,390.98,-1.43,-0.89,-0.84
14.456,148.57,-338.3,85.1,379.16,-1.43,-0.89,-0.8
14.464,138.91,-327.12,79.8,364.24,-1.42,-0.87,-0.77
14.472,130.98,-316.07,76.42,350.56,-1.41,-0.86,-0.74
14.48,123.05,-303.65,72.06,335.46,-1.4,-0.84,-0.71
14.488,115.72,-291.41,67.99,320.83,-1.39,-0.81,-0.68
14.496,108.81,-280.28,64.11,307.42,-1.37,-0.79,-0.64
14.504,101.51,-269.82,59.64,294.38,-1.35,-0.76,-0.58
14.512,94.72,-260.17,55.19,282.32,-1.33,-0.72,-0.5
14.52,89.11,-250.93,50.7,271.06,-1.31,-0.67,-0.43
14.528,83.31,-242.67,45.42,260.56,-1.27,-0.62,-0.34
14.536,78.49,-234.84,40.62,250.92,-1.23,-0.55,-0.25
14.544,73.59,-227.14,34.97,241.31,-1.16,-0.49,-0.17
14.552,69.34,-220.83,29.96,233.39,-1.07,-0.43,-0.11
14.56,66.19,-216.57,26.08,227.96,-0.95,-0.38,-0.05
14.568,64.2,-213.3,24.46,224.09,-0.84,-0.33,-0.01
14.576,63.07,-211.83,25.57,222.49,-0.74,-0.29,0.01
14.584,62.28,-210.16,26.96,220.84,-0.67,-0.25,0.03
14.592,60.63,-208.68,27.03,218.99,-0.62,-0.22,0.05
14.6,59.63,-207.06,27.37,217.21,-0.6,-0.21,0.08
14.608,58.16,-206.52,27.35,216.29,-0.58,-0.21,0.11
14.616,55.88,-203.48,25.48,212.54,-0.57,-0.19,0.14
14.624,55,-201.63,25.26,210.52,-0.55,-0.19,0.17
14.632,53.42,-198.57,23.55,206.97,-0.53,-0.17,0.2
14.64,52.57,-195.88,22.4,204.04,-0.5,-0.16,0.23
14.649,51.18,-192.88,20.99,200.66,-0.45,-0.14,0.26
14.657,50.33,-189.7,19.9,197.27,-0.41,-0.13,0.28
14.665,48.48,-185.43,19.26,192.63,-0.37,-0.1,0.29
14.673,48.09,-181.83,20.68,189.21,-0.33,-0.08,0.29
14.681,46.39,-177.92,20.88,185.05,-0.3,-0.07,0.3
14.689,44.41,-174.94,20.85,181.69,-0.27,-0.07,0.3
14.697,42.08,-171.74,20.5,178.01,-0.26,-0.08,0.31
14.705,40.89,-169.93,21.51,176.1,-0.25,-0.1,0.31
14.713,41.32,-168.3,23.75,174.91,-0.27,-0.13,0.31
14.721,41.86,-167.98,26.71,175.17,-0.29,-0.16,0.31
14.729,41.2,-166.95,27.94,174.21,-0.32,-0.19,0.32
14.738,40.11,-163.4,28.12,170.59,-0.36,-0.18,0.32
14.746,39.2,-160.34,27.87,167.4,-0.39,-0.18,0.33
14.754,37.48,-156.23,25.65,162.7,-0.42,-0.17,0.34
14.762,35,-153.21,23.67,158.93,-0.44,-0.16,0.36
14.77,33.68,-150.3,22.43,155.65,-0.45,-0.15,0.38
14.778,32.44,-148,21.13,152.98,-0.45,-0.16,0.4
14.786,29.81,-143.44,18.3,147.64,-0.44,-0.14,0.4
14.795,28.96,-140.22,17.51,144.25,-0.43,-0.13,0.41
14.803,27.14,-136.43,16.24,140.05,-0.42,-0.12,0.41
14.811,25.46,-132.53,15.09,135.79,-0.42,-0.1,0.41
14.819,24.2,-129.06,15.12,132.18,-0.42,-0.09,0.4
14.827,22.75,-126.36,14.55,129.22,-0.43,-0.09,0.4
14.835,21.55,-124.1,15.13,126.86,-0.43,-0.1,0.39
14.844,20.69,-121.74,15.33,124.43,-0.43,-0.11,0.37
14.852,18.9,-119.73,14.89,122.12,-0.43,-0.11,0.36
14.86,17.35,-118.3,13.98,120.38,-0.43,-0.12,0.34
14.868,16.03,-117.06,13.11,118.88,-0.41,-0.12,0.32
14.876,15,-115.88,12.01,117.46,-0.4,-0.13,0.3
14.885,14.75,-115.19,11.32,116.68,-0.37,-0.14,0.28
14.893,14.64,-114.03,10.73,115.46,-0.35,-0.14,0.26
14.901,14.3,-112.91,9.92,114.24,-0.32,-0.14,0.24
14.909,14.33,-113.24,10.17,114.6,-0.28,-0.16,0.23
14.918,14.24,-112.75,9.71,114.06,-0.25,-0.17,0.22
14.926,14.67,-111.46,9.84,112.86,-0.22,-0.17,0.2
14.934,14.71,-110.15,10,111.58,-0.2,-0.18,0.18
14.942,14.06,-108.73,9.92,110.08,-0.17,-0.18,0.16
14.95,12.5,-106.71,9.55,107.86,-0.15,-0.17,0.14
14.959,12.16,-104.81,9.37,105.93,-0.13,-0.17,0.12
14.967,13.11,-103.22,10.7,104.6,-0.11,-0.17,0.1
14.975,13.9,-101.55,11.54,103.15,-0.1,-0.16,0.08
14.983,13.95,-100.33,10.99,101.89,-0.08,-0.17,0.07
14.992,14.36,-98.81,10.92,100.44,-0.07,-0.17,0.06
15,14.69,-97.44,11.5,99.21,-0.07,-0.18,0.05
15.008,14.75,-95.54,12.18,97.43,-0.06,-0.18,0.04
15.016,14.46,-93.71,12.25,95.61,-0.06,-0.18,0.04
15.025,14.52,-92.58,12.25,94.5,-0.06,-0.19,0.04
15.033,15.43,-91.61,13.79,93.92,-0.06,-0.19,0.04
15.041,15.37,-90.98,14.02,93.33,-0.06,-0.2,0.05
15.049,14.03,-88.83,12.8,90.84,-0.06,-0.19,0.05
15.058,13.63,-87.43,12.55,89.37,-0.06,-0.19,0.06
15.066,12.84,-86.28,11.68,88.01,-0.06,-0.18,0.08
15.074,12.98,-85.67,11.41,87.39,-0.06,-0.18,0.09
15.082,13.6,-85.44,11.3,87.25,-0.06,-0.18,0.1
15.091,14.34,-84.55,12.05,86.6,-0.06,-0.17,0.1
15.099,14.94,-84.71,12.24,86.88,-0.05,-0.18,0.1
15.107,15.11,-84.18,12.9,86.49,-0.05,-0.18,0.1
15.116,15.09,-83.27,12.89,85.6,-0.05,-0.16,0.1
15.124,15.8,-82.91,13.45,85.47,-0.05,-0.16,0.1
15.132,15.8,-82.65,13.34,85.2,-0.05,-0.15,0.11
15.14,16.81,-82.79,13.99,85.63,-0.06,-0.15,0.12
15.149,17.6,-83.95,14.43,86.98,-0.07,-0.16,0.13
15.157,18.78,-85.03,15.72,88.49,-0.07,-0.17,0.15
15.165,18.7,-85.3,15.46,88.69,-0.07,-0.17,0.17
15.174,18.04,-84.38,14.46,87.49,-0.08,-0.15,0.18
15.182,18.54,-83.78,14.79,87.07,-0.09,-0.14,0.18
15.19,18.59,-83.61,14.79,86.92,-0.09,-0.14,0.19
15.198,18.86,-83.47,14.38,86.77,-0.09,-0.14,0.2
15.207,17.49,-81.77,12.69,84.58,-0.09,-0.12,0.2
15.215,16.98,-80.92,11.74,83.51,-0.08,-0.11,0.2
15.223,17.9,-81.5,12.15,84.33,-0.08,-0.12,0.21
15.231,17.41,-81.19,10.81,83.74,-0.07,-0.12,0.21
15.24,17.61,-80.87,10.56,83.44,-0.06,-0.11,0.22
15.248,17.41,-79.65,9.98,82.13,-0.06,-0.1,0.23
15.256,17.7,-78.17,10.62,80.85,-0.06,-0.07,0.24
15.264,19.55,-78.93,12.9,82.33,-0.06,-0.08,0.25
15.273,22.23,-79.6,15.4,84.07,-0.07,-0.08,0.27
15.281,24.55,-80.46,17.82,85.99,-0.07,-0.09,0.28
15.289,25.6,-81.13,19.55,87.29,-0.07,-0.09,0.31
15.297,25.58,-81.38,19.73,87.56,-0.08,-0.08,0.33
15.306,25.45,-81.46,19.56,87.56,-0.08,-0.08,0.35
15.314,23.73,-81.07,17.49,86.27,-0.08,-0.07,0.37
15.322,21.52,-80.4,14.88,84.55,-0.09,-0.05,0.38
15.331,20.8,-80.13,14.1,83.98,-0.09,-0.05,0.39
15.339,21.07,-80.69,14.42,84.64,-0.1,-0.06,0.39
15.347,21.76,-81.21,15.47,85.48,-0.1,-0.06,0.4
15.355,22.64,-81.51,15.98,86.09,-0.11,-0.07,0.4
15.364,22.7,-81.15,16.1,85.79,-0.12,-0.06,0.4
15.372,22.59,-81.12,15.9,85.7,-0.12,-0.06,0.4
15.38,21.1,-80.76,14.32,84.69,-0.13,-0.06,0.4
15.388,20.52,-80.5,13.43,84.15,-0.13,-0.06,0.41
15.397,20.81,-80.52,13.12,84.19,-0.14,-0.06,0.41
15.405,21.18,-80.91,13.41,84.7,-0.15,-0.06,0.4
15.413,23.22,-82.72,14.91,87.2,-0.16,-0.09,0.41
15.421,24.58,-83.46,16.14,88.49,-0.17,-0.1,0.41
15.43,24.56,-83.72,16.55,88.8,-0.18,-0.1,0.4
15.438,23.94,-83.26,15.7,88.04,-0.18,-0.09,0.4
15.446,23.33,-83.14,15.62,87.75,-0.18,-0.09,0.39
15.454,22.77,-81.5,15.4,86.01,-0.18,-0.08,0.37
15.463,21.68,-79.54,14.03,83.63,-0.18,-0.06,0.35
15.471,22.18,-79.02,14.09,83.27,-0.18,-0.06,0.33
15.479,22.36,-77.12,14.24,81.55,-0.17,-0.05,0.3
15.487,21.59,-75.95,13.38,80.08,-0.16,-0.05,0.29
15.496,20.82,-75.5,12.87,79.37,-0.15,-0.05,0.28
15.504,21.87,-76.33,14.04,80.63,-0.14,-0.06,0.27
15.512,22.05,-76.24,14.02,80.59,-0.14,-0.07,0.27
15.521,22.87,-76.16,14.28,80.8,-0.15,-0.07,0.27
15.529,23.61,-75.38,15.37,80.47,-0.16,-0.07,0.26
15.537,23.61,-74.96,15.43,80.09,-0.16,-0.07,0.26
15.545,23.27,-74.56,15.22,79.58,-0.17,-0.07,0.27
15.554,22.21,-73.38,14.76,78.08,-0.17,-0.06,0.27
15.562,22.4,-73.34,14.44,78.03,-0.17,-0.07,0.27
15.57,21.58,-72.58,13.49,76.92,-0.18,-0.06,0.27
15.578,22.47,-73.56,15.46,78.45,-0.18,-0.08,0.28
15.587,22.61,-73.51,15.54,78.46,-0.18,-0.08,0.27
15.595,22.32,-73.46,15.76,78.37,-0.19,-0.08,0.27
15.603,21.01,-72.08,13.42,76.27,-0.2,-0.06,0.27
15.612,18.95,-70.52,10.93,73.84,-0.2,-0.05,0.27
15.62,18.58,-70.39,11.12,73.65,-0.21,-0.04,0.27
15.628,17.63,-71.33,11.58,74.38,-0.21,-0.05,0.27
15.636,17.48,-71.44,12.39,74.58,-0.21,-0.05,0.27
15.645,18.23,-72.67,14.67,76.35,-0.2,-0.07,0.28
